;  Optical constants for C
; 
;   taken from:
;
;   J. H. Weaver, C. Krafka, D. W. Lynch, and E. E. Koch, 'Physik Daten,
;   Physics Data: Optical Properties of Metals', Vol. 18-1 and 18-2,
;   Fach-information zentrum, Karlsruhe, 1981.
;   
;    Lambda (A)            n            k
;-----------------------------------------
  0.41327    1.0	3.29e-11
  0.61990    1.0	2.17e-10
  0.82653    1.0	7.20e-10
   1.3776    1.0	5.0e-9
   1.7711    1.0	1.34e-8
   2.4796    1.0	5.38e-8
   4.1327    1.0	4.48e-7
   6.1990    1.0	2.41e-6
   8.2653    1.0	8.62e-6
   12.398    1.0	4.22e-5
   15.498    .999	9.85e-5
   20.663    .999	3.32e-4
   24.796    .999	5.69e-4
   27.551    .998	8.39e-4
   35.423    .998	2.13e-3
   36.465    .998	2.36e-3
   37.570    .998	2.77e-3
   38.744    .998	3.68e-3
   39.994    .999	4.97e-3
   41.327    1.002	3.54e-3
   42.752    1.001	7.94e-4
   45.919    .999	2.06e-4
   49.592    .998	2.72e-4
   61.990    .995	5.85e-4
   68.878    .994	8.48e-4
   77.488    .992	1.21e-3
   88.557    .989	1.93e-3
   95.369    .987	2.35e-3
   103.32    .985	2.82e-3
   112.71    .982	3.77e-3
   123.98    .978	5.19e-3
   130.51    .976	6.13e-3
   137.76    .973	7.25e-3
   145.86    .970	8.58e-3
   154.98    .966	1.02e-2
   165.31    .961	1.21e-2
   177.11    .955	1.50e-2
   190.74    .948	2.00e-2
   206.63    .940	2.70e-2
   225.42    .932	3.50e-2
   247.96    .922	4.50e-2
   269.52    .914	5.30e-2
   281.77    .911	6.30e-2
   295.19    .904	6.50e-2
   309.95    .903	7.30e-2
   326.26    .883	8.60e-2
   344.39    .879	1.02e-1
   364.65    .873	1.09e-1
   387.44    .857	1.18e-1
   413.27    .837	1.40e-1
   442.79    .816	1.66e-1 
   476.85    .794	2.07e-1
   516.58    .772	2.55e-1
   563.55    .735	3.14e-1
   619.90    .707	4.51e-1
   688.78    .733	6.31e-1
   774.88    .908	8.03e-1
   799.87    1.005	9.39e-1
   826.53    1.099	9.55e-1
   855.03    1.181	9.60e-1
   885.57    1.284	9.56e-1
   918.37    1.378	9.34e-1
   953.69    1.463	8.94e-1
   991.84    1.542	8.51e-1
   1033.2    1.608	7.86e-1
   1078.1    1.663	7.30e-1
   1127.1    1.723	6.68e-1
   1180.8    1.785	5.82e-1
   1239.8    1.811	4.49e-1
   1305.1    1.791	3.34e-1
