;B4C, density =2.28 g/cm3
;R. Soufli et al "Optical constants of magnetron sputtered 
;boron carbide thin films from photoabsorption data in the range 30 to 770 eV" 
;Applied Optics 47, 4633-39 (2008).
;
;
;Lambda (A)	n	k
;---------------------------------------------
16.1007	0.999205	0.000103907
16.1259	0.999203	0.000102259
16.1512	0.999201	0.000105453
16.1761	0.9992	0.00010392
16.2011	0.999197	0.000103166
16.2264	0.999194	0.000103907
16.2515	0.999191	0.000105367
16.276	0.999189	0.000104775
16.3013	0.999185	0.000104684
16.3265	0.999181	0.000107295
16.3512	0.999181	0.000111743
16.3766	0.99918	0.000108871
16.401	0.999177	0.000108759
16.426	0.999173	0.000107774
16.4515	0.999169	0.000109811
16.4764	0.999168	0.000115151
16.5011	0.999169	0.000113307
16.5263	0.999165	0.000109658
16.5515	0.999161	0.000112989
16.5763	0.999159	0.00011133
16.6013	0.999154	0.000113251
16.6264	0.999152	0.000117006
16.6512	0.999152	0.000117396
16.6763	0.99915	0.00011466
16.7013	0.999146	0.000116761
16.7262	0.999143	0.000117688
16.7512	0.999141	0.000119193
16.7765	0.99914	0.000119109
16.8012	0.999137	0.000119577
16.8264	0.999135	0.000119053
16.8514	0.999132	0.000120559
16.876	0.999129	0.000118558
16.9015	0.999125	0.000120764
16.9262	0.999124	0.000124072
16.9512	0.999121	0.000121059
16.976	0.999117	0.000123943
17.0015	0.999115	0.000125105
17.0265	0.999114	0.000126601
17.0514	0.999112	0.000125582
17.0764	0.999109	0.000127814
17.1016	0.999108	0.000126646
17.1263	0.999104	0.000126441
17.1514	0.999102	0.000128246
17.1762	0.999099	0.000127064
17.2012	0.999096	0.00012803
17.2264	0.999093	0.000129533
17.2511	0.99909	0.000130058
17.2764	0.999088	0.00013154
17.3016	0.999086	0.000130836
17.3262	0.999083	0.000131703
17.3512	0.99908	0.000132395
17.3765	0.999077	0.000132914
17.4012	0.999075	0.000134612
17.4261	0.999072	0.000135253
17.4514	0.999071	0.000136325
17.4762	0.999069	0.000135851
17.5013	0.999066	0.000135771
17.5262	0.999062	0.000135338
17.5514	0.999059	0.000138289
17.576	0.999057	0.000138395
17.6015	0.999054	0.000137945
17.6263	0.999051	0.000140532
17.6509	0.999049	0.00014046
17.6764	0.999046	0.000141444
17.7015	0.999043	0.000142897
17.7261	0.999042	0.000143643
17.7514	0.999039	0.000142822
17.7765	0.999036	0.000143945
17.801	0.999033	0.000142528
17.8264	0.999029	0.000145386
17.8513	0.999027	0.000146054
17.8763	0.999025	0.000148228
17.9015	0.999023	0.000146954
17.9265	0.999021	0.00014866
17.9515	0.999018	0.000147082
17.9762	0.999014	0.000148057
18.0012	0.999011	0.000149353
18.0263	0.999008	0.000151357
18.0511	0.999006	0.000150734
18.0765	0.999002	0.000151396
18.101	0.999	0.000154066
18.1265	0.998998	0.000153091
18.1516	0.998994	0.000155154
18.1763	0.998993	0.000156627
18.2014	0.998991	0.000155413
18.2265	0.998987	0.000155056
18.251	0.998984	0.000158445
18.2762	0.998983	0.000158287
18.3013	0.998979	0.00015671
18.3264	0.998976	0.000160561
18.3516	0.998974	0.000158429
18.3763	0.998969	0.000158149
18.4014	0.998966	0.000162131
18.4259	0.998964	0.000163639
18.4511	0.998963	0.000164772
18.4764	0.998961	0.000163301
18.5013	0.998956	0.000162128
18.5263	0.998953	0.00016622
18.5515	0.998951	0.000165754
18.5765	0.998948	0.000166702
18.6013	0.998944	0.000167485
18.6263	0.998943	0.000170498
18.6515	0.998941	0.000168693
18.6763	0.998937	0.000168655
18.7012	0.998933	0.000170028
18.7264	0.99893	0.000173382
18.7511	0.998929	0.000174406
18.7763	0.998927	0.000172658
18.8016	0.998923	0.000173755
18.826	0.99892	0.000175523
18.8515	0.998917	0.00017518
18.8765	0.998914	0.000176642
18.9011	0.998911	0.000177699
18.9263	0.998909	0.000179155
18.9515	0.998907	0.000178285
18.9763	0.998903	0.000179862
19.0015	0.9989	0.000180707
19.0262	0.998899	0.000182747
19.0512	0.998896	0.00017955
19.0766	0.99889	0.000180577
19.1013	0.998886	0.000184313
19.1263	0.998886	0.000187277
19.1512	0.998883	0.000185285
19.1762	0.998881	0.00018893
19.2013	0.998879	0.000186314
19.2263	0.998875	0.000188272
19.2513	0.998871	0.000187268
19.2762	0.998868	0.000191325
19.301	0.998866	0.000192163
19.3264	0.998863	0.000191803
19.3511	0.99886	0.000193476
19.3764	0.998858	0.00019528
19.4015	0.998856	0.000195025
19.426	0.998853	0.000195845
19.4512	0.99885	0.000194983
19.4762	0.998845	0.000196731
19.5011	0.998845	0.000201023
19.5264	0.998843	0.000196744
19.5514	0.998838	0.000198514
19.576	0.998834	0.000198825
19.6013	0.998831	0.00020086
19.6264	0.998827	0.000201233
19.6513	0.998824	0.000205005
19.6761	0.998822	0.000204733
19.7015	0.998819	0.000206091
19.7265	0.998818	0.000210199
19.751	0.998816	0.000207483
19.7765	0.998812	0.000208206
19.8011	0.998809	0.000210237
19.8263	0.998806	0.000210769
19.8514	0.998804	0.000212887
19.876	0.998802	0.000212902
19.9013	0.998798	0.000212795
19.9267	0.998795	0.000216005
19.9509	0.998794	0.000215584
19.9763	0.99879	0.000214396
20.0014	0.998786	0.000216329
20.026	0.998785	0.00022026
20.051	0.998784	0.000217438
20.0762	0.998778	0.000214331
20.1012	0.998773	0.000221348
20.1264	0.998772	0.000220899
20.1513	0.998769	0.000221156
20.1763	0.998766	0.000223627
20.2012	0.998764	0.000223912
20.2264	0.99876	0.000223541
20.2513	0.998756	0.000225407
20.2763	0.998755	0.000228141
20.3015	0.998753	0.000226261
20.3262	0.998748	0.000226496
20.3513	0.998744	0.00022895
20.3764	0.998742	0.000231557
20.4013	0.998739	0.000230765
20.4263	0.998737	0.000235069
20.4515	0.998734	0.000231086
20.4762	0.99873	0.000235087
20.5014	0.998728	0.000235913
20.5262	0.998725	0.000235453
20.5514	0.99872	0.00023618
20.5766	0.998718	0.000243016
20.6013	0.998719	0.000240298
20.6263	0.998714	0.000239114
20.6514	0.99871	0.000241282
20.6761	0.998707	0.000242028
20.7016	0.998704	0.000243425
20.7263	0.998702	0.000244174
20.7513	0.998699	0.000244411
20.7765	0.998695	0.000244595
20.8012	0.998691	0.000247411
20.8264	0.998689	0.000248945
20.8513	0.998685	0.000248944
20.8764	0.998682	0.000253962
20.9015	0.998682	0.000254101
20.9262	0.998679	0.000251505
20.9512	0.998675	0.000255375
20.9761	0.998674	0.000256208
21.0014	0.998671	0.00025547
21.0264	0.998666	0.000254576
21.0513	0.998663	0.000259237
21.0765	0.998662	0.000258135
21.1014	0.998658	0.000257812
21.1262	0.998653	0.000259536
21.1512	0.998649	0.000261901
21.1763	0.998648	0.000266641
21.2013	0.998648	0.000264373
21.2262	0.998644	0.000264464
21.2512	0.99864	0.000264175
21.2764	0.998636	0.000266743
21.3014	0.998633	0.000268236
21.3263	0.998631	0.000271755
21.3511	0.99863	0.000272338
21.376	0.998628	0.000271743
21.4015	0.998623	0.000270081
21.4261	0.99862	0.000274592
21.4511	0.998619	0.000275083
21.4764	0.998616	0.000273675
21.5015	0.998613	0.000276799
21.526	0.998609	0.000273956
21.5514	0.998606	0.000281753
21.5761	0.998611	0.000283484
21.5969	0.998609	0.000270536
21.6494	0.998594	0.000274534
21.7003	0.998585	0.000276418
21.7511	0.998578	0.000281993
21.8014	0.998571	0.000283219
21.8515	0.998565	0.000287297
21.9017	0.998559	0.000287239
21.9521	0.998552	0.000290355
22.0017	0.998546	0.000292644
22.0519	0.998539	0.000294668
22.1021	0.998532	0.000296057
22.1518	0.998525	0.000298314
22.202	0.998516	0.000299633
22.2519	0.998508	0.000304496
22.3018	0.9985	0.000306407
22.3522	0.998491	0.00031205
22.4022	0.998483	0.000317335
22.4518	0.998475	0.000323921
22.5019	0.998469	0.000332193
22.5522	0.998465	0.000340807
22.6018	0.998463	0.00034794
22.652	0.998462	0.00035471
22.7019	0.998462	0.000361174
22.7518	0.998464	0.000365425
22.8019	0.998467	0.00036941
22.8518	0.998471	0.000368921
22.9018	0.998475	0.000365911
22.9522	0.998474	0.000356231
23.0021	0.998467	0.000347582
23.0518	0.998458	0.00034753
23.1019	0.998455	0.000351697
23.1521	0.998461	0.000351804
23.202	0.998462	0.000328716
23.252	0.998439	0.000307287
23.3021	0.998417	0.000315841
23.3518	0.998406	0.000318404
23.4022	0.998394	0.000319753
23.4521	0.998384	0.000324675
23.5017	0.998375	0.000325517
23.552	0.998365	0.000329056
23.6019	0.998357	0.000330798
23.6521	0.998348	0.000333668
23.702	0.99834	0.000335502
23.7518	0.998331	0.000337688
23.802	0.998322	0.000340694
23.852	0.998313	0.000343621
23.9019	0.998306	0.000346708
23.9518	0.998297	0.000348551
24.0019	0.998289	0.000352651
24.0522	0.998282	0.000355375
24.1017	0.998275	0.000356432
24.1519	0.998266	0.000359789
24.2019	0.998259	0.000362916
24.2523	0.998251	0.000364081
24.302	0.998242	0.000367076
24.3521	0.998234	0.000370784
24.402	0.998227	0.000374185
24.452	0.99822	0.000375821
24.5019	0.998211	0.000377436
24.552	0.998204	0.000382987
24.6017	0.998197	0.000384146
24.6522	0.998188	0.000386765
24.702	0.998181	0.000390111
24.7519	0.998173	0.000393054
24.8021	0.998165	0.000395006
24.852	0.998157	0.000400004
24.9022	0.99815	0.000401677
24.9521	0.998142	0.000404974
25.0018	0.998135	0.000407858
25.0519	0.998127	0.000410874
25.1022	0.99812	0.000415297
25.1518	0.998113	0.000416964
25.202	0.998105	0.000419308
25.2519	0.998097	0.000422566
25.302	0.998089	0.000425065
25.352	0.998081	0.000427949
25.4018	0.998074	0.000432345
25.4518	0.998066	0.000433697
25.502	0.998058	0.000437247
25.5518	0.99805	0.00044081
25.6018	0.998042	0.000444498
25.652	0.998035	0.000447105
25.7019	0.998027	0.00045033
25.7521	0.998019	0.000453942
25.8017	0.998012	0.000457545
25.8521	0.998005	0.000459613
25.902	0.997996	0.000462727
25.9522	0.997989	0.000467492
26.0021	0.997982	0.000469938
26.0518	0.997974	0.000472969
26.102	0.997966	0.000475511
26.1521	0.997958	0.000478524
26.202	0.99795	0.000481522
26.2519	0.997942	0.000485075
26.3021	0.997934	0.000487692
26.3518	0.997926	0.000493383
26.4019	0.997919	0.000495907
26.4521	0.997911	0.000498559
26.5018	0.997903	0.000503631
26.5522	0.997896	0.000505794
26.6019	0.997888	0.000509816
26.6518	0.997881	0.000513263
26.7019	0.997872	0.000514203
26.7521	0.997864	0.00052107
26.802	0.997857	0.00052342
26.8516	0.99785	0.000526663
26.9021	0.997843	0.000529825
26.952	0.997834	0.000530351
27.0022	0.997824	0.000536151
27.0519	0.997818	0.000540069
27.1021	0.997809	0.000541155
27.1517	0.997802	0.000547164
27.2022	0.997793	0.000545227
27.2518	0.997783	0.000553192
27.302	0.997775	0.000555712
27.3519	0.997767	0.000560186
27.402	0.99776	0.000563475
27.4519	0.99775	0.000563884
27.5018	0.997741	0.000572045
27.5518	0.997734	0.000575128
27.6022	0.997726	0.000579298
27.6521	0.997719	0.000581057
27.7017	0.997709	0.000581511
27.7519	0.997697	0.000586044
27.8021	0.997687	0.00059209
27.852	0.99768	0.000596575
27.9019	0.997668	0.000595484
27.9521	0.997655	0.00060528
28.002	0.997641	0.000606353
28.1037	0.997625	0.000642808
28.2038	0.997624	0.000651418
28.3039	0.997613	0.000655571
28.4041	0.997599	0.000662077
28.5039	0.997584	0.000670743
28.604	0.997571	0.000681051
28.7038	0.997559	0.000686906
28.8036	0.997545	0.000693806
28.9038	0.997527	0.000697319
29.0033	0.997513	0.000711515
29.1044	0.9975	0.00071484
29.2042	0.997482	0.000718124
29.3037	0.997462	0.000728321
29.4041	0.997444	0.00073753
29.5043	0.997429	0.000753528
29.6041	0.997417	0.00075951
29.7039	0.9974	0.000767452
29.8031	0.997383	0.00077689
29.9042	0.997368	0.000791485
30.0043	0.997359	0.000800485
30.1041	0.997342	0.000799244
30.2036	0.997324	0.000814653
30.3041	0.997309	0.000819645
30.4045	0.997293	0.000833243
30.504	0.997281	0.000840264
30.6038	0.997266	0.00084638
30.7033	0.997248	0.000851446
30.8044	0.997229	0.000861076
30.9039	0.997211	0.000871708
31.0031	0.997196	0.000883314
31.1042	0.997183	0.000892074
31.2037	0.997166	0.000896196
31.3041	0.997147	0.000905603
31.4039	0.997126	0.000911475
31.5034	0.997109	0.000931075
31.6039	0.997095	0.000936551
31.7043	0.997075	0.000942639
31.8035	0.997053	0.000955224
31.904	0.997036	0.000972486
32.0038	0.997023	0.000984516
32.1039	0.997007	0.000990515
32.204	0.996988	0.00100305
32.3039	0.99697	0.00101431
32.4037	0.996954	0.00102749
32.5038	0.996936	0.0010382
32.6043	0.996919	0.00105237
32.7041	0.996903	0.00106451
32.8039	0.996887	0.00107799
32.9034	0.996871	0.00108877
33.0038	0.996855	0.00110329
33.1043	0.99684	0.00111505
33.2038	0.996825	0.00112793
33.3036	0.99681	0.00113901
33.4041	0.996792	0.00114913
33.5045	0.996775	0.00116626
33.6037	0.996762	0.00117788
33.7041	0.996746	0.0011905
33.8033	0.996731	0.0012033
33.9044	0.996716	0.00121602
34.0039	0.9967	0.00122814
34.1037	0.996686	0.00124447
34.2039	0.996673	0.00125425
34.304	0.996658	0.00126636
34.4041	0.996645	0.00127812
34.5039	0.996627	0.00128381
34.6037	0.996608	0.00130151
34.7033	0.996594	0.00131681
34.804	0.996582	0.00132974
34.9044	0.996569	0.00134046
35.0036	0.996553	0.00134938
35.1038	0.996536	0.00136093
35.2042	0.996518	0.00137477
35.304	0.996504	0.0013916
35.4035	0.996492	0.0014018
35.504	0.996474	0.00140782
35.6041	0.996454	0.00142665
35.7039	0.996441	0.0014417
35.8038	0.996427	0.00145336
35.9039	0.996412	0.00146597
36.0036	0.996395	0.00147783
36.1042	0.996381	0.00149559
36.2042	0.996367	0.00150428
36.3044	0.99635	0.00151746
36.4036	0.996336	0.00153264
36.5037	0.99632	0.00154133
36.6042	0.996301	0.00155539
36.7037	0.996287	0.00157384
36.8041	0.996274	0.0015844
36.9036	0.996256	0.00159529
37.0044	0.996239	0.00161099
37.1039	0.996223	0.00162473
37.2034	0.996208	0.00163847
37.3039	0.996189	0.00165078
37.4036	0.996175	0.00167248
37.5047	0.99616	0.00167845
37.6037	0.996139	0.00169465
37.7038	0.996123	0.00171342
37.8039	0.996106	0.00172509
37.9043	0.996087	0.00174507
38.0044	0.996073	0.00176492
38.1037	0.996057	0.00177846
38.2041	0.996042	0.00180173
38.3033	0.996028	0.00181317
38.4044	0.996011	0.00183523
38.5042	0.995998	0.00185367
38.6037	0.995986	0.00187426
38.7041	0.995973	0.00189097
38.8039	0.995964	0.00191527
38.9037	0.995957	0.00192557
39.0039	0.995942	0.00193766
39.1034	0.995928	0.00195959
39.2045	0.995924	0.0019796
39.3043	0.995914	0.00198443
39.4038	0.995903	0.00200242
39.504	0.99589	0.00200738
39.6041	0.995878	0.00202546
39.7045	0.995865	0.00202912
39.8036	0.995847	0.00204141
39.9034	0.99583	0.00205162
40.0036	0.995815	0.00206218
40.1038	0.995788	0.00205687
40.2039	0.995752	0.00207635
40.304	0.995721	0.00209533
40.4038	0.99569	0.00211891
40.504	0.995655	0.00214053
40.6045	0.99562	0.00217802
40.7036	0.995587	0.00221343
40.8032	0.995552	0.00225916
40.9039	0.995523	0.00232124
41.004	0.995505	0.0023872
41.1037	0.995497	0.00246108
41.2036	0.99552	0.00255301
41.3038	0.995549	0.00259143
41.404	0.995567	0.00266075
41.5037	0.995639	0.00275265
41.6042	0.995715	0.00274055
41.7039	0.995762	0.00275886
41.8041	0.995808	0.00275503
41.904	0.995857	0.00276907
42.0035	0.9959	0.00274475
42.1039	0.995968	0.00276282
42.2039	0.995999	0.00265125
42.3045	0.995999	0.00266237
42.404	0.996041	0.00261785
42.504	0.996018	0.00251567
42.6039	0.995986	0.00253454
42.7042	0.995973	0.00248654
42.8041	0.995943	0.00248243
42.9037	0.995913	0.00246891
43.0038	0.995893	0.00250132
43.1035	0.995924	0.00253369
43.2043	0.995973	0.00250177
43.3036	0.995979	0.00242674
43.4034	0.99599	0.0024113
43.5039	0.995958	0.00227174
43.6036	0.995889	0.00227107
43.7043	0.995854	0.00222142
43.8042	0.995786	0.00216386
43.9037	0.995661	0.00211864
43.9937	0.995579	0.00220841
44.2014	0.995511	0.00225427
44.4035	0.995436	0.00228246
44.6047	0.995363	0.00232501
44.8052	0.995301	0.00236971
45.0056	0.995244	0.00241121
45.2054	0.99519	0.002457
45.4059	0.995143	0.00250354
45.606	0.995098	0.00254589
45.8062	0.995055	0.00259283
46.0059	0.995017	0.00263878
46.2058	0.994981	0.00268209
46.4061	0.994947	0.00272726
46.606	0.994916	0.00276935
46.8059	0.994887	0.00281067
47.0054	0.994858	0.00284784
47.2062	0.994827	0.00288522
47.4055	0.994798	0.00292434
47.6061	0.99477	0.00296088
47.8058	0.994739	0.00299512
48.0063	0.994708	0.00303289
48.206	0.994678	0.00306876
48.4059	0.994646	0.00310683
48.6061	0.994616	0.00314819
48.8055	0.994587	0.00318636
49.0065	0.994558	0.00322863
49.206	0.994532	0.00326999
49.4062	0.994509	0.00331275
49.6057	0.994488	0.00335146
49.8062	0.994465	0.00338685
50.0058	0.994443	0.0034277
50.2053	0.994425	0.00346395
50.4064	0.994407	0.00349789
50.6055	0.994388	0.00352797
50.8063	0.994368	0.00355892
51.0053	0.994348	0.0035867
51.206	0.994328	0.00361263
51.406	0.994306	0.00363244
51.6063	0.994278	0.00365149
51.8055	0.994247	0.00366995
52.0061	0.994209	0.00368575
52.2058	0.994167	0.00371118
52.4055	0.994126	0.00373419
52.6059	0.99408	0.0037587
52.806	0.994031	0.00378607
53.0058	0.993975	0.00381252
53.2055	0.993917	0.00385538
53.4058	0.993865	0.00389812
53.606	0.993809	0.0039377
53.8059	0.993751	0.003989
54.006	0.993692	0.00403811
54.206	0.993631	0.00409962
54.4056	0.993577	0.00417039
54.6059	0.993527	0.00424071
54.8065	0.993486	0.00431887
55.0054	0.993447	0.00438358
55.2065	0.993401	0.00445619
55.4061	0.993367	0.00454276
55.6059	0.993339	0.00461273
55.8056	0.993309	0.00468752
56.0058	0.993287	0.00476352
56.2059	0.993262	0.00482016
56.4053	0.993233	0.00489081
56.6059	0.993208	0.00494763
56.8059	0.993173	0.00499892
57.006	0.993132	0.00505245
57.2056	0.993081	0.00509536
57.4061	0.993007	0.00513785
57.6059	0.992922	0.00520404
57.8063	0.992824	0.00526382
58.0056	0.992706	0.00534198
58.2063	0.992568	0.00543944
58.4059	0.992411	0.00556462
58.6055	0.992244	0.00573017
58.8057	0.992068	0.00593421
59.0061	0.99189	0.00619221
59.2061	0.991717	0.00650711
59.4053	0.991577	0.00690945
59.6066	0.991498	0.00737315
59.8056	0.991492	0.00789029
60.0059	0.991599	0.00846375
60.2061	0.991833	0.00901905
60.4056	0.992144	0.00950607
60.6058	0.992561	0.0100146
60.8055	0.993055	0.0103638
61.006	0.993589	0.0106887
61.2057	0.994156	0.0108755
61.4063	0.994706	0.0109926
61.6062	0.995228	0.0110443
61.8064	0.99574	0.0110835
62.0052	0.996247	0.0110667
62.2059	0.996745	0.0110213
62.4059	0.997234	0.0109483
62.6057	0.997759	0.0108869
62.8059	0.998322	0.010717
63.006	0.998891	0.0104749
63.2058	0.999404	0.0100751
63.4059	0.999831	0.00964234
63.6059	1.00012	0.00909498
63.8053	1.00026	0.00864615
64.0062	1.00031	0.00828042
64.2061	1.0003	0.00804897
64.4062	1.00049	0.0082002
64.6059	1.00095	0.00811766
64.8055	1.0016	0.00804841
65.006	1.0025	0.0076665
65.2056	1.00333	0.00668403
65.4062	1.0039	0.00550757
65.6055	1.00407	0.0038711
65.8061	1.00348	0.00219637
66.0058	1.00237	0.00117097
66.206	1.00127	0.000773996
66.4056	1.00043	0.000693999
66.6061	0.999809	0.000667536
66.8057	0.999311	0.000673274
67.0061	0.9989	0.000683291
67.2066	0.998552	0.000697589
67.4053	0.99825	0.000696396
67.606	0.997967	0.000693713
67.8061	0.997706	0.000699894
68.0058	0.997482	0.00071858
68.9	0.996595	0.000663742
69.3001	0.996241	0.000679801
69.6999	0.995923	0.000684487
70.0999	0.995627	0.000699762
70.5001	0.995354	0.000716273
70.9	0.995102	0.000732963
71.3	0.99486	0.000737933
71.7	0.994625	0.00075382
72.0998	0.994404	0.000770968
72.5	0.994196	0.000788308
72.8998	0.993992	0.000792453
73.2998	0.993792	0.000810065
73.6998	0.993601	0.000817477
74.1002	0.993406	0.000822856
74.5	0.993214	0.00083974
74.9002	0.993031	0.000857953
75.3	0.992857	0.000876363
75.7	0.992681	0.000880868
76.1001	0.992503	0.000899561
76.5002	0.992333	0.00091845
76.9002	0.99217	0.000936354
77.3	0.992004	0.000942312
77.7002	0.991836	0.000961696
78.1001	0.991679	0.000981275
78.5002	0.991522	0.0009886
78.8998	0.991357	0.000994795
79.3	0.991192	0.00101481
79.7002	0.991033	0.00103378
80.0998	0.99088	0.00105419
80.5002	0.990724	0.0010607
80.9	0.990565	0.00108015
81.3	0.990414	0.00110107
81.7002	0.990259	0.0011078
82.1	0.9901	0.00112903
82.4999	0.989948	0.00114918
82.8998	0.989801	0.00117083
83.2997	0.989653	0.00117788
83.7001	0.989494	0.00118636
84.0999	0.989334	0.00120847
85.6399	0.98876	0.0013019
86.3599	0.988503	0.0013302
87.0799	0.988236	0.00134754
87.8002	0.987962	0.00137651
88.5198	0.98769	0.00140732
89.2398	0.987417	0.00143711
89.9599	0.987144	0.00147058
90.6797	0.986872	0.00150274
91.3997	0.986599	0.00153386
92.1202	0.986329	0.00156693
92.8397	0.98605	0.00158504
93.5599	0.98576	0.00161887
94.2799	0.985481	0.0016694
95.0002	0.985213	0.00170437
95.7197	0.984933	0.00172375
96.4397	0.984643	0.0017579
97.16	0.984351	0.00179414
97.8802	0.984071	0.0018481
98.6003	0.983792	0.00187048
99.3199	0.9835	0.00190658
100.04	0.983209	0.00194486
100.76	0.982921	0.00198193
101.48	0.982619	0.00200383
102.2	0.982317	0.00206371
102.92	0.982027	0.00210235
103.64	0.981732	0.00214326
104.36	0.981438	0.00218292
105.08	0.981134	0.00220849
105.8	0.980816	0.00224903
106.52	0.98051	0.00231175
107.24	0.980218	0.00235545
107.96	0.979911	0.00238077
