;  Optical constants for tetragonal barium titanate, extraordinary ray
;
;   taken from:
;
;   'Handbook of Optical Constants of Solids II', Ed. by Edward D. Palik,
;   Academic Press, Inc., 1991.
;   
;    Lambda (A)            n            k
;-----------------------------------------
       4219.88       2.54100   6.51000e-06
       4500.18       2.49200   2.51000e-06
       4750.19       2.46100   1.70000e-06
       4999.19       2.43600   1.55000e-06
       5248.94       2.41600   1.46000e-06
       5500.44       2.40000   1.44000e-06
       5750.46       2.38500   1.37000e-06
       6000.97       2.37200   1.29000e-06
       6248.99       2.36200   1.14000e-06
       6501.31       2.35200   1.03000e-06
       6749.05       2.34400   1.02000e-06
       6899.28       2.34000   9.60000e-07
       7250.29       2.33200   7.50000e-07
       7500.30       2.32700   6.00000e-07
       7748.75       2.32100   5.60000e-07
       7998.71       2.31700   5.10000e-07
       8248.84       2.31300   4.80000e-07
       8497.60       2.30900   4.10000e-07
       8749.47       2.30500       0.00000
       8997.10       2.30200       0.00000
       9500.38       2.29700       0.00000
       9998.39       2.29200       0.00000
       10497.9       2.28800       0.00000
       11000.9       2.28400       0.00000
       11500.9       2.28100       0.00000
       12001.9       2.27900       0.00000
       12499.2       2.27700       0.00000
       12999.9       2.27500       0.00000
       13499.6       2.27300       0.00000
       13999.5       2.27100       0.00000
       14498.9       2.27000       0.00000
       14998.8       2.26800       0.00000
       15499.4       2.26700       0.00000
       15999.5       2.26600       0.00000
       16499.9       2.26500       0.00000
       16999.9       2.26400       0.00000
       17498.9       2.26400       0.00000
       17999.4       2.26300       0.00000
       18499.0       2.26200       0.00000
       18997.9       2.26200       0.00000
       19499.8       2.26100       0.00000
       20000.0       2.26000       0.00000
       24996.0       2.21000     0.0315000
       30298.1       2.19000     0.0379000
       35708.5       2.18000     0.0442000
       39993.5       2.16000     0.0491000
       45447.2       2.14000     0.0551000
       49991.9       2.11000     0.0599000
       52623.1       2.10000     0.0625000
       55546.6       2.08000     0.0654000
       58814.0       2.06000     0.0684000
       62489.9       2.04000     0.0716000
       66655.9       2.00000     0.0748000
       71417.0       1.97000     0.0781000
       76910.7       1.92000     0.0811000
       83319.9       1.85000     0.0833000
       90894.4       1.76000     0.0835000
       99983.9       1.63000     0.0789000
       102041.       1.59000     0.0768000
       103059.       1.57000     0.0756000
       104185.       1.55000     0.0742000
       105246.       1.54000     0.0726000
       106879.       1.45000     0.0473000
       107528.       1.49000     0.0689000
       108659.       1.47000     0.0666000
       109911.       1.44000     0.0640000
       111093.       1.54000     0.0530000
       112301.       1.39000     0.0578000
       113639.       1.36000     0.0541000
       114903.       1.33000     0.0498000
       116304.       1.30000     0.0450000
       117628.       1.26000     0.0394000
       118983.       1.22000     0.0329000
       120486.       1.18000     0.0254000
       121908.       1.14000     0.0167000
       123486.       1.09000    0.00627000
       124980.       1.03000    0.00618000
       126510.      0.976000     0.0214000
       128211.      0.911000     0.0403000
       129822.      0.837000     0.0645000
       131614.      0.754000     0.0969000
       133312.      0.659000      0.143000
       135054.      0.552000      0.212000
       136994.      0.447000      0.319000
       138835.      0.372000      0.459000
       140886.      0.335000      0.605000
       142834.      0.321000      0.741000
       144836.      0.320000      0.867000
       147070.      0.326000      0.987000
       149194.      0.338000       1.10000
       151565.      0.354000       1.21000
       153821.      0.374000       1.32000
       156146.      0.399000       1.43000
       158745.      0.427000       1.55000
       161222.      0.461000       1.66000
       163995.      0.501000       1.77000
       166640.      0.550000       1.89000
       169372.      0.608000       2.02000
       172434.      0.681000       2.15000
       175361.      0.773000       2.29000
       178646.      0.893000       2.44000
       181789.       1.06000       2.59000
       185045.       1.29000       2.73000
       188706.       1.63000       2.83000
       192217.       2.11000       2.77000
       196171.       2.60000       2.36000
       199968.       2.71000       1.62000
       203914.       2.32000      0.990000
       208370.       1.65000      0.680000
       212659.      0.849000      0.810000
       217509.      0.428000       1.42000
       222186.      0.374000       1.91000
       227070.      0.408000       2.27000
       232608.      0.472000       2.58000
       237965.      0.555000       2.85000
       244055.      0.652000       3.10000
       249960.      0.763000       3.34000
       256157.      0.890000       3.58000
       263227.       1.04000       3.83000
       270109.       1.21000       4.07000
       277982.       1.41000       4.32000
       285668.       1.66000       4.56000
       293791.       1.95000       4.81000
       303130.       2.29000       5.04000
       312292.       2.70000       5.23000
       322865.       3.18000       5.38000
       333280.       3.72000       5.44000
       344389.       4.30000       5.38000
       357291.       4.88000       5.17000
       370090.       5.38000       4.83000
       385031.       5.77000       4.39000
       399936.       6.01000       3.90000
       416040.       6.11000       3.42000
       435018.       6.08000       2.99000
       454139.       5.94000       2.62000
       476846.       5.67000       2.34000
       499919.       5.16000       2.22000
       512314.       4.68000       2.33000
       525339.       3.86000       2.91000
       536710.       3.14000       4.62000
       543772.       3.35000       6.32000
       546167.       3.88000       7.42000
       548584.       5.01000       8.63000
       553482.       7.10000       9.46000
       555964.       9.81000       8.78000
       560996.       11.3000       4.56000
       568716.       10.1000       2.65000
       587583.       8.19000       1.44000
       604780.       7.54000       1.21000
       626162.       7.17000       1.09000
       666559.       6.74000      0.928000
       712529.       6.48000      0.811000
       770062.       6.29000      0.712000
       832081.       6.16000      0.627000
       911618.       6.04000      0.550000
       999839.       5.95000      0.482000
   1.10696e+06       5.88000      0.419000
   1.24980e+06       5.81000      0.362000
   1.42834e+06       5.76000      0.309000
   1.66640e+06       5.72000      0.259000
   1.99968e+06       5.68000      0.212000
   2.49960e+06       5.65000      0.167000
   3.33280e+06       5.63000      0.124000
   4.99919e+06       5.61000     0.0820000
   9.99839e+06       5.61000     0.0408000
