;  Optical constants for cubic ZnS
; 
;   taken from:
;
;   'Handbook of Optical Constants of Solids II', Ed. by Edward D. Palik,
;   Academic Press, Inc., 1991.
;   
;    Lambda (A)            n            k
;-----------------------------------------
       1.23980      0.999993   7.09000e-07
       1.26867      0.999992   7.69000e-07
       1.29823      0.999992   1.75000e-07
       1.32848      0.999991   1.91000e-07
       1.35941      0.999991   2.09000e-07
       1.39108      0.999990   2.28000e-07
       1.42349      0.999990   2.50000e-07
       1.45663      0.999989   2.73000e-07
       1.49057      0.999989   2.98000e-07
       1.52529      0.999988   3.26000e-07
       1.56081      0.999987   3.56000e-07
       1.59717      0.999987   3.88000e-07
       1.63437      0.999986   4.24000e-07
       1.67244      0.999986   4.63000e-07
       1.71139      0.999985   5.06000e-07
       1.75125      0.999984   5.52000e-07
       1.79206      0.999983   6.03000e-07
       1.83381      0.999983   6.58000e-07
       1.87652      0.999982   7.18000e-07
       1.92024      0.999981   7.83000e-07
       1.96494      0.999980   8.55000e-07
       2.01070      0.999979   9.32000e-07
       2.05755      0.999978   1.02000e-06
       2.10550      0.999977   1.11000e-06
       2.15453      0.999976   1.21000e-06
       2.20472      0.999975   1.32000e-06
       2.25607      0.999973   1.44000e-06
       2.30862      0.999972   1.57000e-06
       2.36238      0.999971   1.71000e-06
       2.41742      0.999969   1.87000e-06
       2.47371      0.999968   2.03000e-06
       2.53134      0.999966   2.22000e-06
       2.59031      0.999965   2.42000e-06
       2.65062      0.999963   2.63000e-06
       2.71238      0.999961   2.87000e-06
       2.77559      0.999960   3.12000e-06
       2.84019      0.999958   3.40000e-06
       2.90637      0.999956   3.71000e-06
       2.97407      0.999954   4.04000e-06
       3.04335      0.999951   4.40000e-06
       3.11421      0.999949   4.79000e-06
       3.18674      0.999947   5.21000e-06
       3.26100      0.999944   5.68000e-06
       3.33692      0.999942   6.18000e-06
       3.41467      0.999939   6.72000e-06
       3.49426      0.999936   7.32000e-06
       3.57559      0.999933   7.96000e-06
       3.65895      0.999930   8.66000e-06
       3.74415      0.999927   9.42000e-06
       3.83139      0.999924   1.02000e-05
       3.92056      0.999920   1.11000e-05
       4.01191      0.999916   1.21000e-05
       4.10530      0.999913   1.32000e-05
       4.20100      0.999909   1.43000e-05
       4.29889      0.999905   1.55000e-05
       4.39895      0.999901   1.69000e-05
       4.50149      0.999897   1.83000e-05
       4.60635      0.999893   1.99000e-05
       4.71353      0.999889   2.16000e-05
       4.82337      0.999885   2.35000e-05
       4.93571      0.999883   2.55000e-05
       5.05072      0.999890   1.68000e-05
       5.16842      0.999871   1.82000e-05
       5.28880      0.999863   1.98000e-05
       5.41185      0.999855   2.15000e-05
       5.53804      0.999848   2.34000e-05
       5.66688      0.999840   2.55000e-05
       5.79888      0.999832   2.77000e-05
       5.93404      0.999824   3.00000e-05
       6.07239      0.999816   3.26000e-05
       6.21360      0.999807   3.54000e-05
       6.35860      0.999798   3.84000e-05
       6.50643      0.999789   4.17000e-05
       6.65807      0.999779   4.52000e-05
       6.81321      0.999769   4.91000e-05
       6.97183      0.999758   5.33000e-05
       7.13431      0.999748   5.78000e-05
       7.30067      0.999736   6.26000e-05
       7.47047      0.999725   6.78000e-05
       7.64459      0.999713   7.35000e-05
       7.82258      0.999701   7.96000e-05
       8.00491      0.999688   8.62000e-05
       8.19107      0.999676   9.34000e-05
       8.38212      0.999663   0.000101000
       8.57756      0.999649   0.000110000
       8.77734      0.999636   0.000119000
       8.98145      0.999622   0.000128000
       9.19051      0.999609   0.000139000
       9.40454      0.999596   0.000151000
       9.62428      0.999583   0.000163000
       9.84828      0.999572   0.000176000
       10.0772      0.999561   0.000189000
       10.3119      0.999552   0.000202000
       10.5524      0.999542   0.000215000
       10.7978      0.999535   0.000230000
       11.0499      0.999530   0.000245000
       11.3069      0.999531   0.000262000
       11.5707      0.999540   0.000279000
       11.8403      0.999570   0.000298000
       12.1157      0.999644   0.000318000
       12.3980      0.999572   7.60000e-05
       12.6873      0.999485   8.21000e-05
       12.9822      0.999427   8.87000e-05
       13.2840      0.999376   9.59000e-05
       13.5943      0.999327   0.000104000
       13.9100      0.999281   0.000113000
       14.2342      0.999234   0.000122000
       14.5670      0.999187   0.000132000
       14.9050      0.999138   0.000143000
       15.2534      0.999089   0.000155000
       15.6087      0.999038   0.000168000
       15.9706      0.998990   0.000182000
       16.3433      0.998930   0.000197000
       16.7247      0.998880   0.000213000
       17.1149      0.998820   0.000230000
       17.5113      0.998760   0.000249000
       17.9214      0.998690   0.000268000
       18.3375      0.998630   0.000288000
       18.7649      0.998560   0.000312000
       19.2009      0.998490   0.000338000
       19.6482      0.998410   0.000365000
       20.1070      0.998340   0.000394000
       20.5742      0.998260   0.000425000
       21.0564      0.998170   0.000458000
       21.5467      0.998080   0.000495000
       22.0487      0.997990   0.000534000
       22.5623      0.997900   0.000577000
       23.0875      0.997800   0.000624000
       23.6242      0.997690   0.000674000
       24.1724      0.997590   0.000729000
       24.7366      0.997480   0.000788000
       25.3124      0.997360   0.000852000
       25.9047      0.997240   0.000922000
       26.5084      0.997120   0.000997000
       27.1232      0.997000    0.00108000
       27.7546      0.996880    0.00116000
       28.4032      0.996740    0.00125000
       29.0624      0.996610    0.00134000
       29.7385      0.996470    0.00144000
       30.4320      0.996330    0.00155000
       31.1429      0.996180    0.00167000
       31.8715      0.996030    0.00180000
       32.6092      0.995890    0.00193000
       33.3728      0.995740    0.00206000
       34.1449      0.995580    0.00220000
       34.9436      0.995410    0.00235000
       35.7600      0.995240    0.00251000
       36.5939      0.995070    0.00268000
       37.4449      0.994890    0.00286000
       38.3127      0.994710    0.00305000
       39.2094      0.994530    0.00326000
       40.1230      0.994350    0.00348000
       41.0530      0.994170    0.00371000
       42.0129      0.993990    0.00396000
       42.9889      0.993810    0.00422000
       43.9957      0.993640    0.00450000
       45.0182      0.993490    0.00478000
       46.0721      0.993340    0.00504000
       47.1407      0.993170    0.00532000
       48.2412      0.992990    0.00561000
       49.3551      0.992810    0.00592000
       50.5010      0.992630    0.00624000
       51.6799      0.992450    0.00659000
       52.8925      0.992260    0.00695000
       54.1161      0.992080    0.00734000
       55.3729      0.991900    0.00776000
       56.6636      0.991740    0.00821000
       57.9888      0.991610    0.00869000
       59.3490      0.991520    0.00917000
       60.7150      0.991430    0.00967000
       62.1454      0.991370     0.0102000
       63.5795      0.991340     0.0108000
       65.0472      0.991360     0.0113000
       66.5843      0.991460     0.0119000
       68.1209      0.991640     0.0126000
       69.7300      0.991940     0.0132000
       71.3349      0.992370     0.0138000
       73.0153      0.993100     0.0144000
       74.6867      0.994540     0.0151000
       76.4365      0.998270    0.00947000
       78.2208      0.994340    0.00990000
       80.0387      0.992890     0.0104000
       81.8890      0.992030     0.0108000
       83.8269      0.991420     0.0113000
       85.7993      0.991030     0.0118000
       86.6993      0.994390    0.00587000
       87.7424      0.990590     0.0119000
       88.5571      0.994110    0.00611000
       89.8406      0.989900     0.0120000
       91.1618      0.993750    0.00645000
       91.9051      0.989000     0.0125000
       93.2180      0.993470    0.00673000
       94.0668      0.988300     0.0131000
       95.3692      0.993210    0.00702000
       96.2578      0.987800     0.0138000
       97.6220      0.992930    0.00735000
       98.4750      0.987300     0.0145000
       99.9839      0.992650    0.00769000
       100.797      0.986900     0.0151000
       102.463      0.992370    0.00807000
       103.145      0.986400     0.0157000
       105.068      0.992090    0.00847000
       105.515      0.986000     0.0163000
       107.809      0.991800    0.00890000
       107.997      0.985500     0.0169000
       110.499      0.985000     0.0176000
       110.696      0.991510    0.00936000
       112.709      0.991320    0.00969000
       113.017      0.984400     0.0182000
       115.653      0.984000     0.0189000
       115.869      0.991050     0.0102000
       118.415      0.983500     0.0196000
       119.212      0.990810     0.0108000
       121.193      0.983000     0.0203000
       121.549      0.990680     0.0112000
       123.980      0.982400     0.0210000
       123.980      0.990610     0.0117000
       126.899      0.981800     0.0217000
       129.822      0.981200     0.0224000
       129.999      0.989000     0.0137000
       132.883      0.980600     0.0232000
       134.996      0.988000     0.0152000
       135.943      0.980000     0.0240000
       139.147      0.979300     0.0248000
       139.995      0.987000     0.0168000
       142.342      0.978600     0.0256000
       145.687      0.977900     0.0265000
       149.014      0.977100     0.0275000
       149.988      0.982000     0.0179000
       152.497      0.976300     0.0285000
       156.146      0.975500     0.0296000
       159.768      0.974700     0.0306000
       159.995      0.974000     0.0255000
       163.347      0.974000     0.0318000
       167.314      0.973200     0.0329000
       169.999      0.974000     0.0281000
       171.243      0.972400     0.0341000
       175.113      0.971600     0.0353000
       179.162      0.970800     0.0365000
       179.994      0.973000     0.0306000
       183.402      0.970000     0.0377000
       187.564      0.969100     0.0390000
       189.979      0.969000     0.0332000
       191.920      0.968200     0.0403000
       196.482      0.967300     0.0416000
       200.000      0.964000     0.0332000
       200.940      0.966400     0.0429000
       205.605      0.965400     0.0443000
       209.993      0.964000     0.0357000
       210.492      0.964600     0.0458000
       215.617      0.963700     0.0470000
       219.979      0.962000     0.0383000
       220.605      0.962600     0.0482000
       225.418      0.961400     0.0495000
       229.976      0.962000     0.0383000
       230.875      0.960200     0.0508000
       236.152      0.958900     0.0521000
       239.992      0.962000     0.0434000
       241.676      0.957600     0.0535000
       250.010      0.957000     0.0434000
       259.971      0.957000     0.0434000
       269.991      0.954000     0.0434000
       279.991      0.949000     0.0459000
       290.012      0.944000     0.0485000
       299.976      0.941000     0.0510000
       319.948      0.929000     0.0561000
       339.951      0.911000     0.0612000
       359.988      0.890000     0.0689000
       379.957      0.867000     0.0791000
       399.935      0.847000     0.0995000
       419.986      0.819000      0.110000
       439.957      0.809000      0.125000
       460.037      0.801000      0.145000
       479.985      0.798000      0.158000
       499.919      0.796000      0.171000
       520.050      0.793000      0.189000
       539.983      0.793000      0.204000
       559.982      0.788000      0.222000
       579.888      0.788000      0.242000
       600.097      0.783000      0.260000
       619.900      0.776000      0.286000
       640.062      0.765000      0.314000
       659.819      0.758000      0.347000
       700.057      0.747000      0.431000
       719.977      0.747000      0.464000
       740.179      0.742000      0.500000
       760.147      0.737000      0.543000
       779.748      0.737000      0.584000
       799.871      0.742000      0.620000
       819.974      0.758000      0.679000
       839.973      0.791000      0.735000
       859.778      0.798000      0.773000
       879.915      0.783000      0.801000
       899.710      0.758000      0.824000
       919.733      0.765000      0.842000
       939.955      0.793000      0.857000
       959.598      0.827000      0.862000
       980.079      0.852000      0.867000
       1049.79      0.834000      0.903000
       1100.09      0.819000       1.02000
       1150.09      0.855000       1.14000
       1200.19      0.929000       1.27000
       1249.92       1.02000       1.36000
       1299.99       1.13000       1.42000
       1349.96       1.23000       1.44000
       1399.95       1.33000       1.44000
       1449.89       1.38000       1.45000
       1499.88       1.41000       1.47000
       1549.94       1.48000       1.53000
       1599.95       1.55000       1.58000
       1649.99       1.65000       1.64000
       1699.99       1.76000       1.70000
       1749.89       1.88000       1.72000
       1799.94       2.01000       1.72000
       1849.90       2.11000       1.68000
       1899.79       2.19000       1.64000
       1949.98       2.26000       1.62000
       2000.00       2.32000       1.62000
       4508.36       2.46870       0.00000
       4591.85       2.45930       0.00000
       4678.49       2.45020       0.00000
       4768.46       2.44140       0.00000
       4861.96       2.43300       0.00000
       4959.20       2.42480       0.00000
       5060.41       2.41700       0.00000
       5165.83       2.40940       0.00000
       5275.75       2.40210       0.00000
       5390.44       2.39500       0.00000
       5510.22       2.38820       0.00000
       5635.45       2.38160       0.00000
       5766.51       2.37530       0.00000
       5903.81       2.36920       0.00000
       6047.81       2.36330       0.00000
       6199.00       2.35760       0.00000
       6357.95       2.35200       0.00000
       6525.26       2.34670       0.00000
       6701.62       2.34160       0.00000
       6887.78       2.33670       0.00000
       7084.57       2.33190       0.00000
       7292.94       2.32740       0.00000
       7513.94       2.32290       0.00000
       7748.75       2.31870       0.00000
       7998.71       2.31460   3.50000e-06
       8265.33       2.31070       0.00000
       8550.34       2.30690       0.00000
       8855.71       2.30330       0.00000
       9183.70       2.29980       0.00000
       9536.92       2.29650       0.00000
       9918.40       2.29330       0.00000
       10331.7       2.29030       0.00000
       10780.9       2.28740       0.00000
       11270.9       2.28460       0.00000
       11807.6       2.28200       0.00000
       12398.0       2.27950       0.00000
       13050.5       2.27710       0.00000
       13775.6       2.27480       0.00000
       14585.9       2.27270       0.00000
       15497.5       2.27060       0.00000
       16530.7       2.26870       0.00000
       17711.4       2.26690       0.00000
       19073.8       2.26510       0.00000
       20663.3       2.26340       0.00000
       22541.8       2.26180       0.00000
       24796.0       2.26030       0.00000
       27551.1       2.25870       0.00000
       30995.0       2.25700       0.00000
       35422.9       2.25520       0.00000
       41326.7       2.25290       0.00000
       49592.0       2.24970       0.00000
       61990.0       2.24430       0.00000
       68877.8       2.24090       0.00000
       77487.5       2.23620       0.00000
       88557.1       2.22900       0.00000
       103317.       2.21760       0.00000
       123980.       2.19690       0.00000
       137756.       2.17930       0.00000
       154994.       2.15180    0.00382000
       177114.       2.10400       0.00000
       200000.       2.05000    0.00720000
       204082.       2.03000    0.00800000
       206633.       2.00410       0.00000
       208335.       2.01000    0.00900000
       212768.       1.98000     0.0100000
       217394.       1.95000     0.0120000
       222226.       1.91000     0.0130000
       227278.       1.87000     0.0150000
       232564.       1.83000     0.0182000
       238103.       1.76000     0.0220000
       243911.       1.69000     0.0260000
       247960.       1.68660       0.00000
       250010.       1.60000     0.0330000
       256422.       1.49000     0.0420000
       263171.       1.35000     0.0570000
       270286.       1.14000     0.0840000
       277795.      0.830000      0.150000
       285734.      0.310000      0.520000
       294140.      0.190000       1.10000
       302981.      0.190000       1.70000
       312450.      0.230000       2.30000
       322529.      0.310000       3.10000
       333280.      0.530000       4.20000
       335534.      0.620000       4.60000
       337820.      0.740000       4.90000
       340137.      0.900000       5.40000
       342486.       1.15000       5.90000
       344772.       1.52000       6.60000
       347186.       2.15000       7.40000
       349633.       3.29000       8.30000
       352116.       5.42000       9.00000
       354634.       8.32000       8.00000
       357085.       9.54000       5.20000
       359675.       9.02000       3.10000
       362303.       8.20000       2.00000
       364969.       7.48000       1.30000
       367675.       6.91000      0.990000
       370311.       6.46000      0.760000
       373097.       6.10000      0.600000
       375925.       5.80000      0.490000
       378796.       5.55000      0.410000
       381712.       5.34000      0.350000
       384553.       5.15000      0.300000
       399936.       4.52000      0.160000
       416599.       4.15000      0.100000
       434712.       3.90000     0.0710000
       454472.       3.72000     0.0520000
       476114.       3.58000     0.0400000
       499919.       3.48000     0.0310000
       526231.       3.39000     0.0250000
       555466.       3.33000     0.0210000
       588140.       3.27000     0.0170000
       624899.       3.22000     0.0150000
       666559.       3.18000     0.0120000
       714170.       3.15000     0.0100000
       769107.       3.12000    0.00910000
       833199.       3.10000    0.00780000
       908944.       3.07000    0.00670000
       999839.       3.06000    0.00580000
   1.33326e+06       2.95000       0.00000
   1.42851e+06       2.94000     0.0100000
   1.53840e+06       2.93200    0.00860000
   1.66662e+06       2.92400    0.00740000
   1.81816e+06       2.91800    0.00540000
   2.00000e+06       2.91300    0.00510000
   2.22226e+06       2.90800    0.00560000
   2.50010e+06       2.90300    0.00620000
   2.85734e+06       2.89900    0.00700000
   3.33280e+06       2.89600       0.00000
   3.99935e+06       2.89400       0.00000
   4.99919e+06       2.89200       0.00000
   6.66559e+06       2.89000       0.00000
