; Optical constants for Cr created by:
; 
; F. Delmotte, J. Meyer-Ilse, F. Salmassi, R. Soufli, C. Burcklen, J. Rebellato, A. Jerome, I. Vickridge, E. Briand, and E. Gullikson
; "Soft x-ray optical constants of sputtered Chromium thin films with improved accuracy in the L and M absorption edge regions"ù, Journal of Applied Physics 124, 035107 (2018)
;
;   The above publication determined new experimental values of optical constants for Cr (density=7.19g/cm3) in the region 25-813 eV (495 A - 15.25 A)
;   The rest of the spectrum contains values from calculations and the literature (see publication for more details)
;
;   In the range 539 A - 29519 A: we use optical constants for polycrystalline Cr taken from:
;   'Handbook of Optical Constants of Solids II', Ed. by Edward D. Palik,
;   Academic Press, Inc., 1991.
;   
;    Lambda (A)            n            k
;-----------------------------------------
0.02864	0.999999992665	2.654E-13
0.03061	0.999999991618	3.486E-13
0.03273	0.999999990421	4.587E-13
0.03498	0.999999989050	6.025E-13
0.0374	0.999999987490	7.917E-13
0.03998	0.999999985700	1.041E-12
0.04274	0.999999983660	1.369E-12
0.04569	0.999999981330	1.801E-12
0.04884	0.999999978660	2.367E-12
0.05221	0.999999975620	3.113E-12
0.05581	0.999999972130	4.094E-12
0.05966	0.999999968150	5.383E-12
0.06378	0.999999963610	7.079E-12
0.06818	0.999999958410	9.308E-12
0.07288	0.999999952470	1.224E-11
0.07791	0.999999945680	1.61E-11
0.08329	0.999999937920	2.117E-11
0.08903	0.999999929050	2.783E-11
0.09518	0.999999918910	3.661E-11
0.10174	0.999999907330	4.814E-11
0.10876	0.999999894100	6.332E-11
0.11627	0.999999878900	8.327E-11
0.12429	0.999999861600	1.095E-10
0.13287	0.999999841900	1.44E-10
0.14204	0.999999819300	1.894E-10
0.15184	0.999999793400	2.492E-10
0.16231	0.999999763900	3.264E-10
0.17351	0.999999730100	4.27E-10
0.18549	0.999999691500	5.585E-10
0.19828	0.999999647300	7.305E-10
0.21197	0.999999596900	9.556E-10
0.22659	0.999999539100	1.25E-9
0.24223	0.999999473100	1.635E-9
0.25894	0.999999397700	2.139E-9
0.27681	0.999999311300	2.798E-9
0.29591	0.999999212600	3.661E-9
0.31632	0.999999099700	4.789E-9
0.33815	0.999998971000	6.266E-9
0.36148	0.999998823000	8.198E-9
0.38642	0.999998654000	1.072E-8
0.41309	0.999998461000	1.403E-8
0.44159	0.999998240000	1.836E-8
0.47206	0.999997987000	2.398E-8
0.50463	0.999997698000	3.104E-8
0.53945	0.999997367000	4.014E-8
0.57667	0.999996989000	5.19E-8
0.61646	0.999996556000	6.713E-8
0.659	0.999996061000	8.682E-8
0.70447	0.999995495000	1.123E-7
0.75308	0.999994849000	1.453E-7
0.77269	0.999994575000	1.607E-7
0.78519	0.999994398000	1.71E-7
0.79789	0.999994214000	1.819E-7
0.81079	0.999994025000	1.935E-7
0.8239	0.999993829000	2.058E-7
0.83723	0.999993627000	2.189E-7
0.85077	0.999993419000	2.329E-7
0.86453	0.999993203000	2.477E-7
0.87852	0.999992981000	2.634E-7
0.89272	0.999992752000	2.801E-7
0.90717	0.999992515000	2.979E-7
0.92184	0.999992271000	3.167E-7
0.93675	0.999992019000	3.367E-7
0.95189	0.999991759000	3.58E-7
0.9673	0.999991490000	3.806E-7
0.98294	0.999991213000	4.046E-7
0.99884	0.999990928000	4.3E-7
1.01499	0.999990633000	4.571E-7
1.03141	0.999990328000	4.858E-7
1.04809	0.999990015000	5.162E-7
1.06505	0.999989690000	5.486E-7
1.08227	0.999989360000	5.829E-7
1.09977	0.999989010000	6.193E-7
1.11756	0.999988660000	6.579E-7
1.13564	0.999988290000	6.989E-7
1.15401	0.999987920000	7.423E-7
1.17267	0.999987530000	7.884E-7
1.19164	0.999987130000	8.373E-7
1.21091	0.999986710000	8.891E-7
1.2305	0.999986290000	9.441E-7
1.2504	0.999985850000	1.002E-6
1.27063	0.999985400000	1.064E-6
1.29118	0.999984940000	1.13E-6
1.31206	0.999984460000	1.199E-6
1.33328	0.999983970000	1.272E-6
1.35485	0.999983460000	1.35E-6
1.37676	0.999982940000	1.432E-6
1.39903	0.999982410000	1.52E-6
1.42166	0.999981860000	1.612E-6
1.44465	0.999981300000	1.71E-6
1.46802	0.999980720000	1.813E-6
1.49176	0.999980130000	1.923E-6
1.51589	0.999979520000	2.039E-6
1.54041	0.999978900000	2.161E-6
1.56532	0.999978260000	2.291E-6
1.59064	0.999977610000	2.428E-6
1.61637	0.999976940000	2.573E-6
1.64251	0.999976270000	2.726E-6
1.66908	0.999975570000	2.888E-6
1.69607	0.999974870000	3.059E-6
1.72351	0.999974160000	3.239E-6
1.75138	0.999973440000	3.43E-6
1.77971	0.999972720000	3.631E-6
1.8085	0.999972000000	3.843E-6
1.83774	0.999971280000	4.067E-6
1.86747	0.999970570000	4.303E-6
1.89767	0.999969900000	4.552E-6
1.92837	0.999969270000	4.815E-6
1.95956	0.999968710000	5.091E-6
1.99125	0.999968310000	5.383E-6
2.02346	0.999968250000	5.689E-6
2.05619	0.999969400000	6.012E-6
2.0701	0.999979920000	6.153E-6
2.07016	0.999979870000	7.471E-7
2.08945	0.999967980000	7.73E-7
2.12324	0.999965250000	8.2E-7
2.15758	0.999963310000	8.698E-7
2.19248	0.999961570000	9.227E-7
2.22794	0.999959910000	9.79E-7
2.26398	0.999958280000	1.039E-6
2.3006	0.999956640000	1.102E-6
2.33781	0.999954980000	1.17E-6
2.37562	0.999953300000	1.241E-6
2.41404	0.999951590000	1.317E-6
2.45309	0.999949830000	1.398E-6
2.49276	0.999948030000	1.484E-6
2.53308	0.999946170000	1.575E-6
2.57405	0.999944270000	1.672E-6
2.61568	0.999942310000	1.775E-6
2.65799	0.999940290000	1.884E-6
2.70099	0.999938220000	2E-6
2.74467	0.999936070000	2.123E-6
2.78906	0.999933860000	2.255E-6
2.83417	0.999931580000	2.394E-6
2.88002	0.999929230000	2.542E-6
2.9266	0.999926800000	2.699E-6
2.97393	0.999924290000	2.866E-6
3.02203	0.999921710000	3.043E-6
3.07091	0.999919030000	3.232E-6
3.12058	0.999916270000	3.432E-6
3.17106	0.999913420000	3.644E-6
3.22234	0.999910480000	3.87E-6
3.27446	0.999907440000	4.11E-6
3.32743	0.999904300000	4.365E-6
3.38125	0.999901060000	4.636E-6
3.43593	0.999897700000	4.924E-6
3.49151	0.999894200000	5.229E-6
3.54798	0.999890700000	5.554E-6
3.60537	0.999887000000	5.899E-6
3.66367	0.999883200000	6.265E-6
3.72294	0.999879200000	6.654E-6
3.78315	0.999875100000	7.067E-6
3.84434	0.999870900000	7.506E-6
3.90652	0.999866600000	7.972E-6
3.9697	0.999862100000	8.467E-6
4.03391	0.999857400000	8.993E-6
4.09915	0.999852600000	9.551E-6
4.16546	0.999847700000	1.014E-5
4.23283	0.999842500000	1.077E-5
4.30129	0.999837200000	1.144E-5
4.37086	0.999831800000	1.215E-5
4.44155	0.999826100000	1.29E-5
4.51339	0.999820300000	1.37E-5
4.5864	0.999814200000	1.455E-5
4.66059	0.999808000000	1.545E-5
4.73596	0.999801600000	1.641E-5
4.81257	0.999794900000	1.743E-5
4.89039	0.999788000000	1.85E-5
4.96951	0.999780900000	1.965E-5
5.04988	0.999773600000	2.086E-5
5.13156	0.999766000000	2.215E-5
5.21455	0.999758200000	2.351E-5
5.2989	0.999750100000	2.496E-5
5.3846	0.999741800000	2.65E-5
5.47169	0.999733100000	2.813E-5
5.5602	0.999724200000	2.987E-5
5.65013	0.999715100000	3.17E-5
5.74152	0.999705600000	3.365E-5
5.83439	0.999695800000	3.571E-5
5.92874	0.999685700000	3.79E-5
6.02465	0.999675200000	4.022E-5
6.12207	0.999664500000	4.268E-5
6.22111	0.999653400000	4.526E-5
6.32173	0.999641900000	4.802E-5
6.42399	0.999630000000	5.094E-5
6.52789	0.999617800000	5.403E-5
6.63347	0.999605200000	5.732E-5
6.74076	0.999592200000	6.081E-5
6.84977	0.999578800000	6.451E-5
6.96056	0.999565000000	6.843E-5
7.07313	0.999550700000	7.258E-5
7.18753	0.999536100000	7.697E-5
7.3038	0.999520900000	8.158E-5
7.42194	0.999505300000	8.646E-5
7.54199	0.999489300000	9.163E-5
7.66394	0.999472700000	9.712E-5
7.7879	0.999455600000	1.029E-4
7.91387	0.999438100000	1.091E-4
8.04189	0.999420000000	1.156E-4
8.17196	0.999401400000	1.225E-4
8.30414	0.999382400000	1.299E-4
8.43843	0.999362800000	1.375E-4
8.57494	0.999342600000	1.455E-4
8.71361	0.999321800000	1.539E-4
8.85456	0.999300300000	1.629E-4
8.99779	0.999278300000	1.723E-4
9.14331	0.999255600000	1.823E-4
9.29117	0.999232300000	1.929E-4
9.44145	0.999208300000	2.041E-4
9.59415	0.999183800000	2.16E-4
9.74933	0.999158600000	2.285E-4
9.90709	0.999132700000	2.418E-4
10.06733	0.999106300000	2.557E-4
10.23014	0.999079100000	2.703E-4
10.3956	0.999051200000	2.858E-4
10.56371	0.999022600000	3.022E-4
10.73456	0.998993000000	3.196E-4
10.90824	0.998963000000	3.379E-4
11.08467	0.998933000000	3.573E-4
11.26392	0.998901000000	3.777E-4
11.4461	0.998870000000	3.994E-4
11.63122	0.998837000000	4.223E-4
11.81939	0.998804000000	4.465E-4
12.0106	0.998770000000	4.72E-4
12.20485	0.998736000000	4.987E-4
12.4022	0.998700000000	5.275E-4
12.6028	0.998665000000	5.588E-4
12.80664	0.998630000000	5.92E-4
13.01378	0.998595000000	6.267E-4
13.22426	0.998560000000	6.62E-4
13.43816	0.998525000000	6.993E-4
13.6555	0.998489000000	7.388E-4
13.87638	0.998452000000	7.812E-4
14.10083	0.998417000000	8.283E-4
14.32889	0.998385000000	8.782E-4
14.56065	0.998357000000	9.311E-4
14.79615	0.998342000000	9.872E-4
15.2549	0.998280000000	0.00103
15.2637	0.998280000000	0.00103
15.275	0.998280000000	0.00104
15.2843	0.998270000000	0.00104
15.2939	0.998270000000	0.00104
15.3047	0.998270000000	0.00104
15.3142	0.998270000000	0.00105
15.3241	0.998260000000	0.00105
15.3351	0.998260000000	0.00105
15.3432	0.998260000000	0.00105
15.356	0.998250000000	0.00106
15.3635	0.998250000000	0.00106
15.3747	0.998250000000	0.00106
15.3839	0.998250000000	0.00106
15.3946	0.998250000000	0.00107
15.4039	0.998250000000	0.00107
15.4154	0.998240000000	0.00107
15.4242	0.998240000000	0.00108
15.4352	0.998240000000	0.00108
15.444	0.998240000000	0.00108
15.4542	0.998240000000	0.00108
15.4643	0.998240000000	0.00108
15.4745	0.998230000000	0.00109
15.4836	0.998230000000	0.00109
15.4952	0.998230000000	0.00109
15.5037	0.998230000000	0.00109
15.5149	0.998230000000	0.0011
15.5246	0.998230000000	0.0011
15.5339	0.998220000000	0.0011
15.5447	0.998220000000	0.0011
15.5545	0.998220000000	0.0011
15.5636	0.998220000000	0.00111
15.5752	0.998210000000	0.00111
15.5839	0.998210000000	0.00111
15.5941	0.998210000000	0.00111
15.6048	0.998210000000	0.00112
15.6139	0.998210000000	0.00112
15.6246	0.998200000000	0.00112
15.6348	0.998200000000	0.00112
15.6434	0.998200000000	0.00112
15.6549	0.998190000000	0.00113
15.6648	0.998190000000	0.00113
15.6739	0.998190000000	0.00113
15.6843	0.998190000000	0.00114
15.6945	0.998180000000	0.00114
15.7038	0.998180000000	0.00114
15.7153	0.998180000000	0.00115
15.7235	0.998180000000	0.00115
15.7346	0.998170000000	0.00116
15.745	0.998170000000	0.00116
15.7535	0.998170000000	0.00116
15.7645	0.998170000000	0.00117
15.7747	0.998160000000	0.00117
15.7837	0.998160000000	0.00118
15.7955	0.998160000000	0.00118
15.8038	0.998160000000	0.00119
15.8142	0.998160000000	0.00119
15.8255	0.998160000000	0.0012
15.833	0.998160000000	0.0012
15.845	0.998150000000	0.0012
15.8539	0.998150000000	0.00121
15.8648	0.998150000000	0.00121
15.874	0.998150000000	0.00122
15.8847	0.998150000000	0.00122
15.8935	0.998150000000	0.00123
15.9058	0.998150000000	0.00123
15.9135	0.998150000000	0.00124
15.9247	0.998150000000	0.00124
15.9341	0.998150000000	0.00124
15.9446	0.998150000000	0.00125
15.9537	0.998150000000	0.00125
15.9647	0.998150000000	0.00126
15.974	0.998150000000	0.00126
15.9849	0.998150000000	0.00127
15.994	0.998150000000	0.00127
16.0045	0.998150000000	0.00127
16.0141	0.998150000000	0.00127
16.0249	0.998150000000	0.00128
16.0336	0.998150000000	0.00128
16.0449	0.998150000000	0.00128
16.054	0.998150000000	0.00129
16.0652	0.998150000000	0.00129
16.0737	0.998150000000	0.00129
16.0844	0.998150000000	0.00129
16.0944	0.998140000000	0.0013
16.1138	0.998140000000	0.00132
16.1247	0.998150000000	0.00133
16.1342	0.998150000000	0.00133
16.1447	0.998150000000	0.00133
16.1538	0.998160000000	0.00133
16.1647	0.998160000000	0.00133
16.1738	0.998160000000	0.00134
16.1851	0.998160000000	0.00134
16.1938	0.998160000000	0.00134
16.2044	0.998160000000	0.00134
16.214	0.998160000000	0.00135
16.2249	0.998160000000	0.00135
16.2345	0.998160000000	0.00135
16.2445	0.998170000000	0.00135
16.2541	0.998170000000	0.00136
16.2645	0.998170000000	0.00136
16.2741	0.998170000000	0.00136
16.2846	0.998170000000	0.00136
16.2945	0.998170000000	0.00137
16.3041	0.998170000000	0.00137
16.3145	0.998170000000	0.00137
16.3244	0.998170000000	0.00137
16.3343	0.998170000000	0.00138
16.3445	0.998180000000	0.00138
16.3538	0.998180000000	0.00138
16.3646	0.998180000000	0.00138
16.3742	0.998180000000	0.00139
16.3846	0.998180000000	0.00139
16.3942	0.998180000000	0.00139
16.405	0.998180000000	0.00139
16.4137	0.998180000000	0.0014
16.4247	0.998180000000	0.0014
16.4339	0.998190000000	0.0014
16.4446	0.998190000000	0.0014
16.4547	0.998190000000	0.0014
16.4643	0.998190000000	0.0014
16.474	0.998190000000	0.0014
16.4849	0.998200000000	0.00141
16.4943	0.998200000000	0.00141
16.504	0.998200000000	0.00141
16.5146	0.998200000000	0.00141
16.524	0.998200000000	0.00141
16.5348	0.998200000000	0.00141
16.5443	0.998200000000	0.00141
16.554	0.998200000000	0.00141
16.5649	0.998210000000	0.00141
16.5746	0.998210000000	0.00141
16.5837	0.998210000000	0.00141
16.5949	0.998210000000	0.00141
16.604	0.998210000000	0.00141
16.6148	0.998210000000	0.00141
16.624	0.998210000000	0.00141
16.6347	0.998210000000	0.00141
16.6435	0.998210000000	0.00141
16.6554	0.998210000000	0.00141
16.6637	0.998210000000	0.00141
16.6747	0.998210000000	0.00141
16.684	0.998200000000	0.00141
16.6947	0.998200000000	0.00141
16.7043	0.998200000000	0.00141
16.7145	0.998200000000	0.00141
16.7244	0.998200000000	0.00141
16.7341	0.998200000000	0.00141
16.7439	0.998200000000	0.00141
16.7552	0.998190000000	0.00141
16.7637	0.998190000000	0.00141
16.7744	0.998190000000	0.00141
16.7845	0.998190000000	0.00141
16.7947	0.998190000000	0.00141
16.8043	0.998180000000	0.00141
16.8145	0.998180000000	0.00141
16.8236	0.998180000000	0.00141
16.8352	0.998180000000	0.00141
16.8445	0.998180000000	0.00142
16.8539	0.998170000000	0.00142
16.8645	0.998170000000	0.00142
16.8747	0.998170000000	0.00142
16.8836	0.998170000000	0.00142
16.895	0.998170000000	0.00142
16.9042	0.998160000000	0.00142
16.9141	0.998160000000	0.00143
16.9247	0.998160000000	0.00143
16.9339	0.998160000000	0.00143
16.9445	0.998150000000	0.00143
16.9547	0.998150000000	0.00143
16.9639	0.998150000000	0.00143
16.9745	0.998140000000	0.00144
16.9847	0.998140000000	0.00144
16.9938	0.998140000000	0.00144
17.005	0.998140000000	0.00144
17.0139	0.998130000000	0.00145
17.0242	0.998130000000	0.00145
17.0347	0.998130000000	0.00145
17.0441	0.998130000000	0.00146
17.054	0.998120000000	0.00146
17.0652	0.998120000000	0.00147
17.0737	0.998120000000	0.00147
17.0848	0.998120000000	0.00148
17.0941	0.998110000000	0.00148
17.1045	0.998110000000	0.00148
17.1139	0.998110000000	0.00149
17.1246	0.998110000000	0.00149
17.1336	0.998110000000	0.00149
17.145	0.998110000000	0.0015
17.1545	0.998110000000	0.0015
17.1644	0.998110000000	0.00151
17.1746	0.998110000000	0.00151
17.184	0.998110000000	0.00151
17.1942	0.998110000000	0.00152
17.2048	0.998110000000	0.00152
17.2139	0.998100000000	0.00152
17.2241	0.998100000000	0.00153
17.2349	0.998100000000	0.00153
17.2444	0.998100000000	0.00154
17.2546	0.998100000000	0.00154
17.2642	0.998100000000	0.00155
17.2744	0.998100000000	0.00155
17.2843	0.998100000000	0.00156
17.2944	0.998100000000	0.00156
17.3041	0.998100000000	0.00157
17.3145	0.998100000000	0.00157
17.3241	0.998100000000	0.00158
17.3344	0.998100000000	0.00158
17.3445	0.998100000000	0.00159
17.3542	0.998100000000	0.00159
17.3645	0.998100000000	0.0016
17.3742	0.998110000000	0.0016
17.3843	0.998110000000	0.00161
17.3946	0.998110000000	0.00161
17.4038	0.998110000000	0.00161
17.4151	0.998110000000	0.00162
17.4239	0.998110000000	0.00162
17.4342	0.998110000000	0.00162
17.4448	0.998120000000	0.00163
17.4539	0.998120000000	0.00163
17.4644	0.998120000000	0.00163
17.4743	0.998120000000	0.00164
17.4849	0.998130000000	0.00164
17.4938	0.998130000000	0.00164
17.5047	0.998130000000	0.00165
17.5138	0.998130000000	0.00165
17.5248	0.998130000000	0.00165
17.5344	0.998130000000	0.00166
17.544	0.998140000000	0.00166
17.5548	0.998140000000	0.00166
17.5645	0.998140000000	0.00167
17.5741	0.998140000000	0.00167
17.5845	0.998150000000	0.00167
17.5941	0.998150000000	0.00167
17.6042	0.998150000000	0.00168
17.6145	0.998150000000	0.00168
17.6241	0.998160000000	0.00168
17.6348	0.998160000000	0.00168
17.6446	0.998160000000	0.00169
17.6538	0.998160000000	0.00169
17.6642	0.998170000000	0.00169
17.6749	0.998170000000	0.00169
17.6837	0.998170000000	0.00169
17.6949	0.998180000000	0.0017
17.7041	0.998180000000	0.0017
17.7147	0.998180000000	0.0017
17.7246	0.998180000000	0.0017
17.7338	0.998190000000	0.0017
17.7442	0.998190000000	0.0017
17.7546	0.998190000000	0.0017
17.7639	0.998200000000	0.00171
17.7747	0.998200000000	0.00171
17.7845	0.998200000000	0.00171
17.7943	0.998210000000	0.00171
17.8046	0.998210000000	0.00171
17.814	0.998210000000	0.00171
17.8242	0.998220000000	0.00171
17.8347	0.998220000000	0.00171
17.844	0.998230000000	0.00171
17.8541	0.998230000000	0.00171
17.8648	0.998230000000	0.00171
17.8744	0.998240000000	0.00171
17.8846	0.998240000000	0.0017
17.894	0.998240000000	0.0017
17.9044	0.998250000000	0.0017
17.9144	0.998250000000	0.0017
17.924	0.998250000000	0.0017
17.9344	0.998260000000	0.0017
17.9446	0.998260000000	0.00169
17.9542	0.998260000000	0.00169
17.9644	0.998260000000	0.00169
17.9743	0.998270000000	0.00169
17.9844	0.998270000000	0.00168
17.9946	0.998270000000	0.00168
18.0039	0.998270000000	0.00167
18.0146	0.998270000000	0.00167
18.0243	0.998270000000	0.00166
18.0347	0.998270000000	0.00166
18.0441	0.998270000000	0.00165
18.0545	0.998270000000	0.00165
18.0641	0.998270000000	0.00164
18.0746	0.998270000000	0.00164
18.0839	0.998270000000	0.00163
18.0946	0.998260000000	0.00162
18.1046	0.998260000000	0.00162
18.1142	0.998260000000	0.00161
18.124	0.998250000000	0.00161
18.1348	0.998250000000	0.00161
18.1438	0.998240000000	0.00161
18.1548	0.998240000000	0.0016
18.1639	0.998230000000	0.0016
18.1739	0.998230000000	0.0016
18.185	0.998220000000	0.0016
18.1947	0.998210000000	0.00159
18.204	0.998210000000	0.00159
18.2143	0.998200000000	0.00159
18.2246	0.998200000000	0.00159
18.2337	0.998190000000	0.00159
18.245	0.998180000000	0.00159
18.254	0.998180000000	0.00159
18.2648	0.998170000000	0.00159
18.2744	0.998170000000	0.0016
18.2837	0.998160000000	0.0016
18.2945	0.998150000000	0.0016
18.3046	0.998150000000	0.0016
18.3138	0.998140000000	0.0016
18.3247	0.998140000000	0.0016
18.3348	0.998130000000	0.00161
18.3442	0.998130000000	0.00161
18.3542	0.998120000000	0.00161
18.3643	0.998110000000	0.00162
18.3744	0.998110000000	0.00162
18.3843	0.998100000000	0.00162
18.3939	0.998100000000	0.00163
18.4047	0.998090000000	0.00163
18.4146	0.998090000000	0.00164
18.4242	0.998080000000	0.00164
18.4342	0.998080000000	0.00165
18.4443	0.998070000000	0.00165
18.4541	0.998070000000	0.00166
18.4646	0.998060000000	0.00166
18.474	0.998060000000	0.00167
18.4847	0.998050000000	0.00168
18.4945	0.998050000000	0.00169
18.5042	0.998050000000	0.00169
18.5142	0.998040000000	0.0017
18.5246	0.998040000000	0.00171
18.5339	0.998040000000	0.00172
18.5447	0.998040000000	0.00173
18.5539	0.998040000000	0.00174
18.5641	0.998040000000	0.00174
18.5748	0.998040000000	0.00175
18.584	0.998040000000	0.00176
18.5946	0.998050000000	0.00177
18.6043	0.998050000000	0.00178
18.6145	0.998060000000	0.00178
18.6238	0.998060000000	0.00179
18.6353	0.998060000000	0.0018
18.6436	0.998070000000	0.0018
18.6549	0.998080000000	0.0018
18.664	0.998080000000	0.00181
18.6743	0.998090000000	0.00181
18.6842	0.998090000000	0.00181
18.6949	0.998100000000	0.00181
18.7038	0.998100000000	0.00181
18.715	0.998110000000	0.00181
18.7238	0.998110000000	0.00181
18.7349	0.998110000000	0.00181
18.7442	0.998110000000	0.00181
18.7541	0.998110000000	0.00181
18.7642	0.998120000000	0.0018
18.7745	0.998120000000	0.0018
18.784	0.998120000000	0.0018
18.7951	0.998120000000	0.0018
