;  Optical constants for cubic KBr
; 
;   taken from:
;
;   'Handbook of Optical Constants of Solids II', Ed. by Edward D. Palik,
;   Academic Press, Inc., 1991.
;   
;    Lambda (A)            n            k
;-----------------------------------------
       309.950      0.910000     0.0690000
       313.873      0.900000     0.0710000
       317.897      0.900000     0.0720000
       322.026      0.890000     0.0760000
       326.263      0.880000     0.0800000
       330.613      0.870000     0.0860000
       335.081      0.860000     0.0930000
       339.671      0.840000      0.110000
       344.389      0.840000      0.130000
       349.239      0.850000      0.140000
       354.229      0.850000      0.150000
       359.362      0.860000      0.150000
       364.647      0.870000      0.150000
       370.090      0.880000      0.150000
       375.697      0.880000      0.140000
       381.477      0.860000      0.140000
       387.438      0.850000      0.150000
       393.587      0.850000      0.160000
       399.935      0.840000      0.180000
       399.935      0.800000       0.00000
       406.492      0.840000      0.180000
       406.492      0.800000       0.00000
       413.267      0.840000      0.190000
       413.267      0.780000      0.220000
       420.271      0.830000      0.200000
       420.271      0.770000      0.230000
       427.517      0.810000      0.220000
       427.517      0.760000      0.260000
       435.018      0.820000      0.290000
       435.018      0.760000      0.310000
       442.786      0.880000      0.320000
       442.786      0.790000      0.330000
       450.836      0.920000      0.290000
       450.836      0.840000      0.310000
       459.185      0.910000      0.260000
       459.185      0.840000      0.300000
       467.849      0.890000      0.270000
       467.849      0.830000      0.310000
       476.846      0.890000      0.300000
       476.846      0.820000      0.340000
       486.196      0.920000      0.330000
       486.196      0.850000      0.340000
       495.920      0.950000      0.330000
       495.920      0.880000      0.350000
       506.041      0.900000      0.350000
       516.583      0.900000      0.340000
       527.574      0.900000      0.330000
       539.043      0.890000      0.330000
       551.022      0.880000      0.340000
       563.545      0.870000      0.350000
       570.023      0.860000      0.380000
       576.651      0.850000      0.400000
       583.435      0.850000      0.520000
       590.381      0.980000      0.470000
       597.494      0.980000      0.410000
       604.781      0.970000      0.340000
       607.745       1.01000      0.310000
       612.247      0.950000      0.340000
       613.762      0.960000      0.340000
       616.816      0.920000      0.360000
       619.900      0.910000      0.380000
       619.900      0.940000      0.420000
       621.454      0.970000      0.460000
       623.015       1.01000      0.490000
       624.584       1.02000      0.480000
       626.162       1.04000      0.460000
       627.747       1.07000      0.460000
       629.340       1.09000      0.440000
       632.551       1.12000      0.390000
       635.795       1.10000      0.340000
       639.072       1.07000      0.320000
       645.729       1.03000      0.320000
       652.526       1.00000      0.330000
       659.468      0.980000      0.360000
       666.559      0.980000      0.370000
       673.804      0.990000      0.410000
       681.209       1.03000      0.430000
       688.778       1.05000      0.430000
       696.517       1.07000      0.420000
       704.432       1.09000      0.410000
       712.529       1.10000      0.390000
       720.814       1.10000      0.370000
       729.294       1.10000      0.360000
       737.976       1.09000      0.320000
       746.867       1.09000      0.320000
       755.976       1.09000      0.320000
       765.309       1.05000      0.320000
       774.875       1.03000      0.360000
       784.684       1.07000      0.350000
       794.744       1.07000      0.340000
       805.065       1.07000      0.330000
       815.658       1.06000      0.300000
       826.533       1.04000      0.290000
       837.703       1.01000      0.280000
       849.178      0.980000      0.270000
       860.972      0.950000      0.270000
       873.099      0.900000      0.290000
       885.571      0.860000      0.330000
       898.406      0.840000      0.370000
       911.618      0.820000      0.400000
       925.224      0.790000      0.450000
       950.038       1.13300      0.645000
       966.329       1.10700      0.656000
       983.968       1.08600      0.758000
       1002.26       1.11300      0.854000
       1016.23       1.13200      0.938000
       1034.03       1.20700       1.05800
       1047.13       1.34100       1.16600
       1065.12       1.62100       1.19200
       1084.69       1.85100      0.986000
       1104.01       1.85900      0.838000
       1127.09       1.83800      0.655000
       1133.27       1.82400      0.634000
       1145.84       1.82400      0.571000
       1159.78       1.76000      0.532000
       1166.32       1.75200      0.520000
       1178.52       1.71900      0.494000
       1189.83       1.70400      0.501000
       1200.19       1.68700      0.504000
       1215.49       1.68400      0.458000
       1223.89       1.63500      0.473000
       1253.59       1.67000      0.424000
       1264.20       1.60600      0.413000
       1276.57       1.58800      0.433000
       1289.98       1.56900      0.432000
       1302.31       1.53900      0.414000
       1325.14       1.48800      0.434000
       1333.98       1.45200      0.413000
       1347.17       1.36900      0.449000
       1363.47       1.30300      0.553000
       1377.25       1.28200      0.698000
       1393.97       1.33500      0.797000
       1408.70       1.34100      0.879000
       1423.09       1.39000       1.07300
       1440.96       1.70200       1.26700
       1457.90       2.04200       1.12500
       1474.37       2.15000      0.929000
       1495.36       2.15300      0.774000
       1511.40       2.19500      0.650000
       1532.32       2.19200      0.551000
       1547.62       2.15800      0.437000
       1569.57       2.05600      0.330000
       1581.38       1.99000      0.297000
       1591.53       1.95000      0.333000
       1599.33       1.95300      0.334000
       1608.04       1.91000      0.348000
       1621.08       1.94600      0.312000
       1628.53       1.87500      0.278000
       1640.60       1.80800      0.303000
       1651.75       1.80200      0.307000
       1665.06       1.71300      0.347000
       1674.95       1.64900      0.397000
       1684.97       1.61300      0.480000
       1699.99       1.59300      0.662000
       1710.07       1.65000      0.809000
       1720.03       1.79900      0.925000
       1734.96       2.14200      0.983000
       1744.97       2.34900      0.826000
       1760.08       2.43300      0.486000
       1770.13       2.34800      0.322000
       1785.17       2.17400      0.179000
       1794.99       2.02900      0.172000
       1809.93       1.86300      0.229000
       1825.11       1.73200      0.345000
       1835.11       1.66900      0.473000
       1850.17       1.67900      0.774000
       1864.92       1.87600       1.07000
       1879.91       2.34800       1.27900
       1895.14       2.97700      0.846000
       1905.04       2.95700      0.444000
       1920.09       2.76100      0.131000
       1935.07       2.54900     0.0231000
       2000.00       2.09953       0.00000
       2099.93       1.93440       0.00000
       2199.79       1.85023       0.00000
       2299.76       1.79622       0.00000
       2399.92       1.75773       0.00000
       2500.10       1.72863       0.00000
       2599.71       1.70575       0.00000
       2699.91       1.68725       0.00000
       2799.91       1.67197       0.00000
       2900.12       1.65915       0.00000
       2999.76       1.64825       0.00000
       3100.27       1.63886       0.00000
       3200.31       1.63071       0.00000
       3299.97       1.62357       0.00000
       3399.51       1.61727       0.00000
       3500.28       1.61167       0.00000
       3599.88       1.60668       0.00000
       3699.79       1.60220       0.00000
       3799.57       1.59816       0.00000
       3899.97       1.59450       0.00000
       3999.35       1.59117       0.00000
       4199.86       1.58537       0.00000
       4399.57       1.58048       0.00000
       4600.37       1.57632       0.00000
       4799.85       1.57274       0.00000
       4999.19       1.56964       0.00000
       5200.50       1.56694       0.00000
       5399.83       1.56456       0.00000
       5599.82       1.56247       0.00000
       5798.88       1.56060       0.00000
       6000.97       1.55894       0.00000
       6199.00       1.55744       0.00000
       6400.62       1.55610       0.00000
       6598.19       1.55488       0.00000
       6800.88       1.55378       0.00000
       7000.56       1.55278       0.00000
       7199.77       1.55186       0.00000
       7401.79       1.55102       0.00000
       7601.47       1.55025       0.00000
       7797.48       1.54954       0.00000
       7998.71       1.54888       0.00000
       8199.74       1.54828       0.00000
       8399.73       1.54772       0.00000
       8597.78       1.54720       0.00000
       8799.15       1.54671       0.00000
       8997.10       1.54626       0.00000
       9197.33       1.54584       0.00000
       9399.54       1.54544       0.00000
       9603.41       1.54507       0.00000
       9800.79       1.54472       0.00000
       9998.39       1.54440       0.00000
       12001.9       1.54198       0.00000
       13999.5       1.54052       0.00000
       15999.5       1.53955       0.00000
       17999.4       1.53901       0.00000
       20000.0       1.53833       0.00000
       21997.9       1.53792       0.00000
       23999.2       1.53758       0.00000
       25997.1       1.53728       0.00000
       27999.1       1.53702       0.00000
       29997.6       1.53677       0.00000
       32003.1       1.53655       0.00000
       33995.1       1.53633       0.00000
       35998.8       1.53611       0.00000
       37995.7       1.53590       0.00000
       39993.5       1.53569       0.00000
       41998.6       1.53547       0.00000
       43995.7       1.53526       0.00000
       46003.7       1.53504       0.00000
       47998.4       1.53482       0.00000
       49991.9       1.53459       0.00000
       52005.0       1.53435       0.00000
       53998.3       1.53411       0.00000
       55998.2       1.53386       0.00000
       57988.8       1.53361       0.00000
       60009.7       1.53335       0.00000
       61990.0       1.53308       0.00000
       64006.2       1.53281       0.00000
       65981.9       1.53253       0.00000
       68008.8       1.53224       0.00000
       70005.6       1.53194       0.00000
       71997.7       1.53163       0.00000
       74017.9       1.53132       0.00000
       76014.7       1.53100       0.00000
       77974.8       1.53067       0.00000
       79987.1       1.53033       0.00000
       81997.4       1.52998       0.00000
       83997.3       1.52962       0.00000
       86037.5       1.52926       0.00000
       87991.5       1.52889       0.00000
       89971.0       1.52851       0.00000
       91973.3       1.52812       0.00000
       93995.5       1.52772       0.00000
       96034.1       1.52731       0.00000
       98007.9       1.52689       0.00000
       99983.9       1.52647       0.00000
       101957.       1.52603       0.00000
       104010.       1.52559       0.00000
       105966.       1.52514       0.00000
       107997.       1.52467       0.00000
       110009.       1.52420       0.00000
       111996.       1.52372       0.00000
       113952.       1.52323       0.00000
       115978.       1.52273       0.00000
       117964.       1.52222       0.00000
       120019.       1.52171       0.00000
       122028.       1.52118       0.00000
       123992.       1.52064       0.00000
       125996.       1.52009       0.00000
       127999.       1.51954       0.00000
       129999.       1.51897       0.00000
       131992.       1.51840       0.00000
       134003.       1.51781       0.00000
       136003.       1.51721       0.00000
       138001.       1.51661       0.00000
       139995.       1.51599       0.00000
       142000.       1.51536       0.00000
       143995.       1.51473       0.00000
       145996.       1.51408       0.00000
       148000.       1.51342       0.00000
       150006.       1.51275       0.00000
       151992.       1.51208       0.00000
       153993.       1.51139       0.00000
       155989.       1.51069       0.00000
       157997.       1.50998       0.00000
       159995.       1.50926       0.00000
       162002.       1.50852       0.00000
       163995.       1.50778       0.00000
       165993.       1.50703       0.00000
       167995.       1.50626       0.00000
       169999.       1.50548       0.00000
       172003.       1.50470       0.00000
       174007.       1.50390       0.00000
       176008.       1.50309       0.00000
       178004.       1.50227       0.00000
       179994.       1.50143       0.00000
       182002.       1.50059       0.00000
       184001.       1.49973       0.00000
       185989.       1.49886       0.00000
       187991.       1.49798       0.00000
       190008.       1.49709       0.00000
       192009.       1.49618       0.00000
       193992.       1.49526       0.00000
       195985.       1.49433       0.00000
       197988.       1.49339       0.00000
       200000.       1.49243       0.00000
       204993.       1.48999       0.00000
       209993.       1.48746       0.00000
       214982.       1.48485       0.00000
       219979.       1.48215       0.00000
       225009.       1.47937       0.00000
       229976.       1.47650       0.00000
       234989.       1.47353       0.00000
       239992.       1.47047       0.00000
       245020.       1.46732       0.00000
       250010.       1.46406       0.00000
       254998.       1.46070       0.00000
       259971.       1.45723       0.00000
       264971.       1.45366       0.00000
       269991.       1.44998       0.00000
       275022.       1.44618       0.00000
       279991.       1.44226       0.00000
       285012.       1.43821       0.00000
       290012.       1.43404       0.00000
       294980.       1.42974       0.00000
       299976.       1.42531       0.00000
       304994.       1.42073       0.00000
       310028.       1.41601       0.00000
       314990.       1.41114       0.00000
       320031.       1.40611       0.00000
       324980.       1.40091       0.00000
       329997.       1.39555       0.00000
       334991.       1.39001       0.00000
       339951.       1.38429       0.00000
       344964.       1.37838       0.00000
       350028.       1.37227       0.00000
       354938.       1.36595       0.00000
       359988.       1.35941       0.00000
       364969.       1.35264       0.00000
       369979.       1.34563       0.00000
       375015.       1.33837       0.00000
       379957.       1.33084       0.00000
       385031.       1.32304       0.00000
       389997.       1.31494       0.00000
       394967.       1.30653       0.00000
       399936.       1.29779       0.00000
       399936.       1.35000    0.00320000
       405031.       1.28870       0.00000
       409987.       1.27924       0.00000
       414926.       1.26939       0.00000
       416599.       1.33000       0.00000
       419986.       1.25911       0.00000
       434712.       1.30000       0.00000
       454472.       1.20000     0.0170000
       476114.       1.10000     0.0290000
       499919.       1.00000     0.0600000
       512738.      0.930000      0.110000
       526231.      0.900000      0.180000
       540453.      0.890000      0.200000
       555466.      0.830000      0.220000
       571336.      0.760000      0.390000
       588140.      0.760000      0.440000
       605963.      0.800000      0.440000
       624899.      0.760000      0.470000
       645057.      0.600000      0.580000
       666559.      0.480000      0.720000
       689544.      0.390000      0.900000
       714170.      0.320000       1.20000
       740621.      0.290000       2.00000
       769107.      0.300000       2.00000
       799871.      0.330000       2.90000
       833199.      0.650000       4.30000
       869425.       3.00000       5.30000
       908944.       5.50000       1.00000
       952227.       3.90000      0.540000
   1.05336e+06       3.10000      0.200000
   1.11093e+06       2.80000      0.150000
   1.17628e+06       2.60000      0.130000
   1.24992e+06       2.52000      0.125000
   1.42851e+06       2.40000      0.120000
   1.66662e+06       2.35000      0.110000
   2.00000e+06       2.30000     0.0930000
   2.50010e+06       2.28000     0.0680000
   3.33280e+06       2.24000     0.0370000
   4.99919e+06       2.20000     0.0160000
   2.58399e+07       2.21000    0.00118000
   5.98648e+07       2.19000   0.000240000
   8.47437e+07       2.21000   0.000499000
   1.24992e+08       2.20000   0.000143000
   2.99396e+08       2.21000   0.000254000
   3.36719e+08       2.22000   0.000261000
