;  Optical constants for MgO
;  
;  Concatenation of:
;
;  MgO_llnl_cxro + MgO_palik
;
;    Lambda (A)            n            k
;-----------------------------------------
      0.12398425       0.99999993    3.4069560e-12
      0.12523662       0.99999992    3.5555211e-12
      0.12651454       0.99999992    3.7118211e-12
      0.12848109       0.99999992    3.9632693e-12
      0.13050974       0.99999992    4.2351403e-12
      0.13189814       0.99999992    4.4298866e-12
      0.13331640       0.99999991    4.6353277e-12
      0.13550191       0.99999991    4.9670905e-12
      0.13776028       0.99999991    5.3273611e-12
      0.13930815       0.99999991    5.5864160e-12
      0.14089119       0.99999990    5.8605558e-12
      0.14333439       0.99999990    6.3050996e-12
      0.14586382       0.99999990    6.7901532e-12
      0.14760030       0.99999990    7.1404405e-12
      0.14937861       0.99999989    7.5123230e-12
      0.15212791       0.99999989    8.1182915e-12
      0.15498031       0.99999988    8.7829999e-12
      0.15634836       0.99999988    9.1176416e-12
      0.15774078       0.99999988    9.4674001e-12
      0.16078881       0.99999988    1.0269743e-11
      0.16313717       0.99999987    1.0922609e-11
      0.16421755       0.99999987    1.1233650e-11
      0.16540055       0.99999987    1.1581386e-11
      0.16868605       0.99999986    1.2593708e-11
      0.17220035       0.99999986    1.3744529e-11
      0.17462570       0.99999985    1.4587856e-11
      0.17712036       0.99999985    1.5492920e-11
      0.17968732       0.99999985    1.6470691e-11
      0.18232978       0.99999984    1.7522187e-11
      0.18395289       0.99999984    1.8194762e-11
      0.18552185       0.99999983    1.8862195e-11
      0.18813998       0.99999983    2.0020546e-11
      0.19074500       0.99999983    2.1222378e-11
      0.19372539       0.99999982    2.2669195e-11
      0.19680040       0.99999981    2.4234047e-11
      0.19901164       0.99999981    2.5413292e-11
      0.20160041       0.99999981    2.6845020e-11
      0.20392146       0.99999980    2.8184301e-11
      0.20664042       0.99999980    2.9812581e-11
      0.20733152       0.99999979    3.0237934e-11
      0.20823690       0.99999979    3.0801550e-11
      0.21193889       0.99999978    3.3191281e-11
      0.21376595       0.99999978    3.4421703e-11
      0.21551234       0.99999978    3.5629938e-11
      0.21828213       0.99999977    3.7612498e-11
      0.22140045       0.99999976    3.9944343e-11
      0.22542591       0.99999976    4.3115882e-11
      0.22960046       0.99999975    4.6600324e-11
      0.23393255       0.99999974    5.0439725e-11
      0.23616048       0.99999973    5.2508282e-11
      0.23843125       0.99999973    5.4677863e-11
      0.24074612       0.99999972    5.6964452e-11
      0.24310637       0.99999972    5.9364947e-11
      0.24551337       0.99999971    6.1897576e-11
      0.24796850       0.99999971    6.4558934e-11
      0.25047323       0.99999970    6.7361947e-11
      0.25302908       0.99999969    7.0317095e-11
      0.25563763       0.99999969    7.3438155e-11
      0.25830052       0.99999968    7.6723968e-11
      0.26101947       0.99999967    8.0202326e-11
      0.26379628       0.99999967    8.3868372e-11
      0.26663280       0.99999966    8.7748886e-11
      0.26953098       0.99999965    9.1853885e-11
      0.27369592       0.99999964    9.8008009e-11
      0.27861629       0.99999963    1.0566798e-10
      0.28306906       0.99999962    1.1298019e-10
      0.28833547       0.99999960    1.2212015e-10
      0.29310697       0.99999959    1.3087887e-10
      0.29875723       0.99999957    1.4186135e-10
      0.30166484       0.99999956    1.4778518e-10
      0.30388297       0.99999956    1.5242008e-10
      0.30689171       0.99999955    1.5889900e-10
      0.30996062       0.99999954    1.6570537e-10
      0.31388418       0.99999953    1.7474179e-10
      0.31790833       0.99999952    1.8439570e-10
      0.32203701       0.99999950    1.9471763e-10
      0.32627434       0.99999949    2.0576411e-10
      0.33062467       0.99999948    2.1755809e-10
      0.33509257       0.99999946    2.3019993e-10
      0.33968288       0.99999945    2.4376367e-10
      0.34411393       0.99999943    2.5742675e-10
      0.34729482       0.99999942    2.6760331e-10
      0.35123017       0.99999941    2.8058239e-10
      0.35525573       0.99999939    2.9437936e-10
      0.35937464       0.99999938    3.0897371e-10
      0.36359018       0.99999937    3.2449484e-10
      0.36681731       0.99999935    3.3677315e-10
      0.37121033       0.99999934    3.5405278e-10
      0.37570985       0.99999932    3.7244303e-10
      0.38031979       0.99999931    3.9199493e-10
      0.38385217       0.99999929    4.0749819e-10
      0.38866536       0.99999927    4.2937050e-10
      0.39360079       0.99999926    4.5271102e-10
      0.39738542       0.99999924    4.7125842e-10
      0.40254627       0.99999922    4.9747514e-10
      0.40784293       0.99999920    5.2551926e-10
      0.41328083       0.99999918    5.6506446e-10
      0.41996528       0.99999915    6.0414420e-10
      0.42675785       0.99999913    6.4591098e-10
      0.43365996       0.99999910    6.9053916e-10
      0.44067464       0.99999907    7.3822797e-10
      0.44780188       0.99999904    7.8918962e-10
      0.45504485       0.99999901    8.4364568e-10
      0.46240522       0.99999897    9.0183064e-10
      0.46988471       0.99999894    9.6400569e-10
      0.47748323       0.99999890    1.0304300e-09
      0.48520618       0.99999887    1.1014070e-09
      0.49305362       0.99999883    1.1772373e-09
      0.50102946       0.99999879    1.2582649e-09
      0.50913375       0.99999875    1.3448291e-09
      0.51736847       0.99999871    1.4373066e-09
      0.52573570       0.99999867    1.5361064e-09
      0.53423986       0.99999863    1.6416630e-09
      0.54288101       0.99999858    1.7544332e-09
      0.55166142       0.99999854    1.8748955e-09
      0.56058349       0.99999849    2.0035794e-09
      0.56964967       0.99999844    2.1410518e-09
      0.57886523       0.99999839    2.2879279e-09
      0.58822755       0.99999834    2.4448006e-09
      0.59774203       0.99999828    2.6123813e-09
      0.60740863       0.99999823    2.7913803e-09
      0.61723320       0.99999817    2.9825967e-09
      0.62721577       0.99999811    3.1864576e-09
      0.63736268       0.99999805    3.4045314e-09
      0.64767070       0.99999798    3.6373371e-09
      0.65814639       0.99999792    3.8859121e-09
      0.66878971       0.99999785    4.1512828e-09
      0.67960781       0.99999778    4.4346178e-09
      0.69060079       0.99999771    4.7370939e-09
      0.70176851       0.99999763    5.0599497e-09
      0.71312284       0.99999755    5.4046943e-09
      0.72465574       0.99999747    5.7725900e-09
      0.73637533       0.99999739    6.1652892e-09
      0.74828597       0.99999730    6.5844724e-09
      0.76038766       0.99999722    7.0318252e-09
      0.77268974       0.99999713    7.5093895e-09
      0.78518752       0.99999703    8.0189859e-09
      0.79788566       0.99999693    8.5628055e-09
      0.81078912       0.99999683    9.1431400e-09
      0.82390321       0.99999673    9.7624841e-09
      0.83722795       0.99999662    1.0423331e-08
      0.85077472       0.99999651    1.1128660e-08
      0.86453191       0.99999640    1.1881043e-08
      0.87851717       0.99999628    1.2683969e-08
      0.89272445       0.99999616    1.3540532e-08
      0.90716643       0.99999603    1.4454512e-08
      0.92183655       0.99999590    1.5429465e-08
      0.93674824       0.99999577    1.6469702e-08
      0.95189443       0.99999563    1.7579194e-08
      0.96729692       0.99999549    1.8763174e-08
      0.98294103       0.99999534    2.0025850e-08
      0.99884192       0.99999519    2.1372907e-08
       1.0149914       0.99999503    2.2809350e-08
       1.0314143       0.99999486    2.4342034e-08
       1.0480937       0.99999470    2.5976314e-08
       1.0650470       0.99999452    2.7719550e-08
       1.0822742       0.99999434    2.9578685e-08
       1.0997751       0.99999416    3.1561084e-08
       1.1175592       0.99999397    3.3675194e-08
       1.1356365       0.99999377    3.5930007e-08
       1.1540074       0.99999356    3.8334361e-08
       1.1726719       0.99999335    4.0898273e-08
       1.1916406       0.99999313    4.3632108e-08
       1.2109138       0.99999291    4.6546962e-08
       1.2305030       0.99999268    4.9654757e-08
       1.2504021       0.99999244    5.2968206e-08
       1.2706260       0.99999219    5.6499715e-08
       1.2911771       0.99999193    6.0266147e-08
       1.3120610       0.99999167    6.4280397e-08
       1.3332830       0.99999139    6.8560165e-08
       1.3548474       0.99999111    7.3123878e-08
       1.3767614       0.99999082    7.7985854e-08
       1.3990297       0.99999052    8.3170523e-08
       1.4216568       0.99999020    8.8695220e-08
       1.4446523       0.99998988    9.4584525e-08
       1.4680180       0.99998955    1.0085973e-07
       1.4917624       0.99998921    1.0754878e-07
       1.5158889       0.99998885    1.1467706e-07
       1.5404086       0.99998848    1.2227461e-07
       1.5653233       0.99998811    1.3037019e-07
       1.5906408       0.99998771    1.3899668e-07
       1.6163693       0.99998731    1.4818841e-07
       1.6425127       0.99998689    1.5798213e-07
       1.6690775       0.99998646    1.6841928e-07
       1.6960747       0.99998602    1.7953415e-07
       1.7235068       0.99998556    1.9138040e-07
       1.7513829       0.99998508    2.0400017e-07
       1.7797106       0.99998459    2.1744561e-07
       1.8084974       0.99998408    2.3176670e-07
       1.8377457       0.99998356    2.4701796e-07
       1.8674717       0.99998302    2.6326824e-07
       1.8976755       0.99998246    2.8057853e-07
       1.9283713       0.99998188    2.9901391e-07
       1.9595592       0.99998128    3.1864641e-07
       1.9912542       0.99998066    3.3955528e-07
       2.0234629       0.99998003    3.6182552e-07
       2.0561883       0.99997937    3.8553739e-07
       2.0894473       0.99997869    4.1078949e-07
       2.1232398       0.99997798    4.3768161e-07
       2.1575837       0.99997726    4.6630097e-07
       2.1924790       0.99997651    4.9680522e-07
       2.2279410       0.99997573    5.2922881e-07
       2.2639777       0.99997493    5.6378446e-07
       2.3005973       0.99997411    6.0056684e-07
       2.3378081       0.99997325    6.3975046e-07
       2.3756186       0.99997237    6.8140725e-07
       2.4140424       0.99997146    7.2579106e-07
       2.4530886       0.99997051    7.7300081e-07
       2.4927620       0.99996954    8.2324957e-07
       2.5330824       0.99996854    8.7675370e-07
       2.5740550       0.99996750    9.3367452e-07
       2.6156849       0.99996642    9.9422830e-07
       2.6579939       0.99996532    1.0586806e-06
       2.7009877       0.99996417    1.1272737e-06
       2.7446721       0.99996299    1.2002044e-06
       2.7890648       0.99996177    1.2778400e-06
       2.8341719       0.99996050    1.3604383e-06
       2.8800192       0.99995920    1.4483010e-06
       2.9266003       0.99995785    1.5417338e-06
       2.9739352       0.99995646    1.6411081e-06
       3.0220307       0.99995503    1.7468188e-06
       3.0709086       0.99995354    1.8592718e-06
       3.1205844       0.99995201    1.9788738e-06
       3.1710581       0.99995043    2.1059708e-06
       3.2223454       0.99994879    2.2410770e-06
       3.2744626       0.99994711    2.3847078e-06
       3.3274268       0.99994536    2.5374113e-06
       3.3812472       0.99994356    2.6996381e-06
       3.4359325       0.99994170    2.8721222e-06
       3.4915109       0.99993978    3.0554150e-06
       3.5479825       0.99993780    3.2501373e-06
       3.6053672       0.99993575    3.4570032e-06
       3.6636748       0.99993364    3.6767984e-06
       3.7229377       0.99993146    3.9102930e-06
       3.7831564       0.99992921    4.1583620e-06
       3.8443417       0.99992688    4.4218525e-06
       3.9065168       0.99992448    4.7016418e-06
       3.9697063       0.99992200    4.9988389e-06
       4.0339103       0.99991945    5.3144242e-06
       4.0991543       0.99991681    5.6494879e-06
       4.1654656       0.99991408    6.0051868e-06
       4.2328301       0.99991127    6.3828203e-06
       4.3012899       0.99990838    6.7837062e-06
       4.3708599       0.99990538    7.2091704e-06
       4.4415557       0.99990230    7.6607168e-06
       4.5133926       0.99989912    8.1398779e-06
       4.5864037       0.99989584    8.6483799e-06
       4.6605890       0.99989245    9.1879046e-06
       4.7359651       0.99988896    9.7600011e-06
       4.8125674       0.99988537    1.0366802e-05
       4.8903959       0.99988166    1.1010532e-05
       4.9695078       0.99987784    1.1693251e-05
       5.0498841       0.99987390    1.2417512e-05
       5.1315648       0.99986984    1.3184959e-05
       5.2145492       0.99986567    1.3998136e-05
       5.2989025       0.99986136    1.4860846e-05
       5.3846029       0.99985694    1.5774769e-05
       5.4716958       0.99985238    1.6743298e-05
       5.5602058       0.99984769    1.7769552e-05
       5.6501326       0.99984286    1.8856286e-05
       5.7415267       0.99983790    2.0007692e-05
       5.8343882       0.99983280    2.1226777e-05
       5.9287432       0.99982756    2.2517520e-05
       6.0246483       0.99982218    2.3884728e-05
       6.1220744       0.99981667    2.5330453e-05
       6.2211108       0.99981100    2.6832143e-05
       6.3217276       0.99980517    2.8439005e-05
       6.4239878       0.99979919    3.0141981e-05
       6.5278919       0.99979306    3.1946763e-05
       6.6334728       0.99978679    3.3859697e-05
       6.7407656       0.99978037    3.5887550e-05
       6.8497693       0.99977382    3.8036413e-05
       6.9605584       0.99976713    4.0313960e-05
       7.0731335       0.99976032    4.2716978e-05
       7.1875344       0.99975341    4.5247603e-05
       7.3038032       0.99974637    4.7879575e-05
       7.4219400       0.99973919    5.0664893e-05
       7.5419881       0.99973192    5.3612546e-05
       7.6639458       0.99972456    5.6730812e-05
       7.7879065       0.99971714    6.0031666e-05
       7.9138715       0.99970970    6.3525021e-05
       8.0418913       0.99970227    6.7221712e-05
       8.1719659       0.99969492    7.1133733e-05
       8.3041479       0.99968770    7.5273277e-05
       8.4384358       0.99968073    7.9648063e-05
       8.5749435       0.99967413    8.4277180e-05
       8.7136125       0.99966813    8.9174060e-05
       8.8545632       0.99966303    9.4357770e-05
       8.9977974       0.99965942    9.9842175e-05
       9.1433138       0.99965841    0.00010564379
       9.2911768       0.99966281    0.00011178369
       9.4414555       0.99968539    0.00011828134
       9.5145614       0.99981409    0.00012153066
       9.5160220       0.99981410    3.1757923e-05
       9.5941507       0.99967676    3.2720766e-05
       9.7493355       0.99963618    3.4727257e-05
       9.9070893       0.99961057    3.6850339e-05
       10.067334       0.99958894    3.9097189e-05
       10.230146       0.99956894    4.1476070e-05
       10.395607       0.99954964    4.3999999e-05
       10.563718       0.99953063    4.6677253e-05
       10.734567       0.99951164    4.9517536e-05
       10.908249       0.99949251    5.2530999e-05
       11.084670       0.99947315    5.5726885e-05
       11.263923       0.99945346    5.9117630e-05
       11.446109       0.99943339    6.2714896e-05
       11.631229       0.99941290    6.6530855e-05
       11.819393       0.99939195    7.0579275e-05
       12.010603       0.99937051    7.4848713e-05
       12.204856       0.99934855    7.9350980e-05
       12.402208       0.99932618    8.4157936e-05
       12.602805       0.99930287    8.8839101e-05
       12.806650       0.99927886    9.4273444e-05
       13.013782       0.99925439    0.00010001735
       13.224267       0.99922934    0.00010613224
       13.438163       0.99920371    0.00011252014
       13.655510       0.99917734    0.00011912977
       13.876385       0.99915020    0.00012613930
       14.100833       0.99912230    0.00013354866
       14.328900       0.99909356    0.00014137840
       14.560653       0.99906401    0.00014978981
       14.796157       0.99903367    0.00015872972
       15.035483       0.99900260    0.00016835278
       15.278668       0.99897088    0.00017856848
       15.525784       0.99893843    0.00018936446
       15.776908       0.99890531    0.00020084398
       16.032080       0.99887159    0.00021286638
       16.291381       0.99883709    0.00022547316
       16.554896       0.99880186    0.00023881068
       16.822646       0.99876590    0.00025284817
       17.094744       0.99872930    0.00026778152
       17.371237       0.99869221    0.00028353605
       17.652220       0.99865482    0.00029992260
       17.937718       0.99861664    0.00031671188
       18.227858       0.99857740    0.00033461092
       18.522667       0.99853738    0.00035399200
       18.822253       0.99849766    0.00037540163
       19.126701       0.99845849    0.00039799156
       19.436071       0.99842023    0.00042170080
       19.750420       0.99838282    0.00044626821
       20.069873       0.99834640    0.00047193816
       20.394494       0.99831166    0.00049897145
       20.724350       0.99827962    0.00052764117
       21.059540       0.99825189    0.00055793202
       21.400172       0.99823069    0.00058991417
       21.746320       0.99822048    0.00062393035
       22.098019       0.99823098    0.00066012529
       22.455464       0.99829114    0.00069843814
       22.818655       0.99884740    0.00073903393
       22.824788       0.99899719    0.00073973590
       22.833195       0.99899718    0.00021729270
       23.187715       0.99821825    0.00022992237
       23.562773       0.99804553    0.00024379766
       23.943873       0.99791591    0.00025846188
       24.331152       0.99780145    0.00027403598
       24.724703       0.99769368    0.00029051016
       25.124575       0.99758889    0.00030796083
       25.530967       0.99748510    0.00032640777
       25.943881       0.99738114    0.00034592142
       26.363529       0.99727623    0.00036660524
       26.789912       0.99716983    0.00038844052
       27.223259       0.99706146    0.00041156927
       27.663570       0.99695086    0.00043605621
       28.111028       0.99683779    0.00046197075
       28.565693       0.99672198    0.00048935133
       29.027695       0.99660324    0.00051831435
       29.497164       0.99648143    0.00054895362
       29.974313       0.99635634    0.00058129609
       30.459069       0.99622786    0.00061546421
       30.951724       0.99609580    0.00065155271
       31.452358       0.99595999    0.00068962441
       31.961129       0.99582035    0.00072991767
       32.478035       0.99567675    0.00077232278
       33.003325       0.99552898    0.00081717457
       33.537174       0.99537696    0.00086449399
       34.079583       0.99522059    0.00091439160
       34.630828       0.99505971    0.00096702923
       35.190907       0.99489418     0.0010225372
       35.760114       0.99472389     0.0010811213
       36.338557       0.99454876     0.0011428316
       36.926230       0.99436865     0.0012078130
       37.523455       0.99418329     0.0012763168
       38.130463       0.99399271     0.0013486243
       38.747137       0.99379688     0.0014245950
       39.373829       0.99359537     0.0015046120
       40.010665       0.99338841     0.0015890105
       40.657906       0.99317566     0.0016775895
       41.315413       0.99295703     0.0017709141
