;  Optical constants for Pd
; 
;   taken from:
;
;   'Handbook of Optical Constants of Solids II', Ed. by Edward D. Palik,
;   Academic Press, Inc., 1991.
;   
;    Lambda (A)            n            k
;-----------------------------------------
       23.5991      0.996000    0.00380000
       31.5985      0.998000    0.00480000
       37.4981      0.995000    0.00350000
       44.6984      0.993000    0.00210000
       49.9980      0.992000    0.00230000
       59.9981      0.986000    0.00280000
       67.5972      0.982000    0.00310000
       74.9985      0.980000    0.00330000
       99.9919      0.960000    0.00370000
       113.994      0.938000    0.00390000
       124.992      0.910000    0.00900000
       135.497      0.871000     0.0250000
       149.988      0.851000     0.0720000
       171.385      0.835000      0.148000
       200.000      0.850000      0.220000
       243.003      0.879000      0.244000
       256.263      0.851000      0.224000
       303.798      0.821000      0.247000
       326.952      0.799000      0.310000
       356.777      0.758000      0.307000
       379.260      0.763000      0.420000
       405.827      0.794000      0.451000
       447.743      0.780000      0.495000
       460.721      0.765000      0.547000
       489.459      0.809000      0.625000
       539.043      0.853000      0.763000
       584.260      0.913000      0.850000
       616.203      0.990000      0.790000
       670.887       1.03000      0.766000
       718.308       1.06000      0.778000
       735.786       1.07000      0.824000
       743.731      0.936000      0.744000
       834.320       1.24000      0.877000
       878.045       1.23000      0.815000
       919.733       1.36000      0.796000
       932.180       1.30000      0.749000
       988.676       1.28000      0.733000
       1033.17       1.34000      0.660000
       1078.09       1.33000      0.650000
       1127.09       1.31000      0.650000
       1180.76       1.30000      0.660000
       1239.80       1.28000      0.660000
       1305.05       1.25000      0.660000
       1377.56       1.19000      0.680000
       1458.59       1.10000      0.720000
       1549.75      0.980000      0.840000
       1653.07      0.890000       1.02000
       1771.14      0.850000       1.23000
       1907.38      0.860000       1.44000
       2073.24      0.870000       1.60000
       2119.32      0.890000       1.65000
       2163.70      0.910000       1.70000
       2213.93      0.920000       1.76000
       2262.41      0.940000       1.81000
       2313.06      0.970000       1.86000
       2370.55       1.00000       1.91000
       2426.22       1.04000       1.95000
       2489.56       1.08000       1.99000
       2551.03       1.11000       2.03000
       2615.61       1.13000       2.07000
       2689.37       1.16000       2.10000
       2761.25       1.19000       2.13000
       2843.58       1.18000       2.18000
       2924.06       1.18000       2.23000
       3009.22       1.20000       2.29000
       3107.27       1.21000       2.35000
       3203.62       1.21000       2.42000
       3314.97       1.20000       2.50000
       3424.86       1.22000       2.57000
       3542.29       1.23000       2.65000
       3678.93       1.24000       2.74000
       3814.77       1.26000       2.83000
       3973.72       1.30000       2.93000
       4132.67       1.33000       3.03000
       4304.86       1.37000       3.14000
       4508.36       1.41000       3.26000
       4714.07       1.46000       3.39000
       4959.20       1.52000       3.54000
       5209.24       1.57000       3.68000
       5485.84       1.64000       3.84000
       5820.66       1.68000       4.02000
       6168.16       1.75000       4.21000
       6594.68       1.80000       4.42000
       7044.32       1.86000       4.65000
       7559.76       1.95000       4.89000
       8210.60       2.06000       5.19000
       8919.42       2.33000       5.50000
       9839.68       2.34000       5.89000
       10875.4       2.52000       6.33000
       12154.9       2.66000       6.90000
       13930.3       2.80000       7.65000
       16101.3       3.01000       8.59000
       19371.9       3.34000       9.89000
       20663.3       3.80000       9.96000
       21375.9       3.85000       10.2300
       22139.3       3.92000       10.4900
       22959.3       3.97000       10.7900
       23842.3       4.03000       11.1000
       24796.0       4.10000       11.4400
       25829.2       4.20000       11.7700
       26952.2       4.27000       12.1100
       28177.3       4.31000       12.4600
       29519.0       4.31000       12.8500
       30995.0       4.27000       13.2700
       32626.3       4.17000       13.7700
       34438.9       3.98000       14.4100
       36464.7       3.80000       15.1800
       38743.8       3.56000       16.2100
       41326.7       3.56000       17.2700
       44278.6       3.30000       18.5200
       47684.6       3.11000       20.1500
       51658.3       3.15000       21.9700
       56354.5       3.10000       24.0600
       61990.0       3.07000       26.5900
       65252.6       3.07000       28.0900
       68877.8       3.15000       29.7100
       72929.4       3.20000       31.4600
       77487.5       3.17000       33.4500
       82653.3       3.13000       35.8200
       88557.1       3.11000       38.4800
       95369.2       3.36000       41.5200
       103317.       3.60000       45.0800
       112709.       3.85000       49.2100
       123980.       4.13000       54.1500
