;  Optical constants for trigonal Te,ordinary ray
; 
;   taken from:
;
;   'Handbook of Optical Constants of Solids II', Ed. by Edward D. Palik,
;   Academic Press, Inc., 1991.
;   
;    Lambda (A)            n            k
;-----------------------------------------
       1.24328      0.999989   1.04000e-06
       1.32869      0.999988   1.23000e-06
       1.39163      0.999987   1.46000e-06
       1.45739      0.999985   1.73000e-06
       1.52628      0.999984   2.05000e-06
       1.59850      0.999982   2.43000e-06
       1.67405      0.999981   2.87000e-06
       1.75311      0.999979   3.40000e-06
       1.83620      0.999972   4.01000e-06
       1.92306      0.999975   4.73000e-06
       2.01397      0.999973   5.58000e-06
       2.10922      0.999971   6.57000e-06
       2.20880      0.999986   7.73000e-06
       2.31349      0.999964   9.08000e-06
       2.42290      0.999964   1.07000e-05
       2.47960      0.999964   1.15000e-05
       2.53745      0.999964   1.10000e-05
       2.59644      0.999962   1.19000e-05
       2.65766      0.999962   1.30000e-05
       2.71946      0.999962   1.03000e-05
       2.78294      0.999960   1.12000e-05
       2.84815      0.999964   1.21000e-05
       2.91443      0.999957   3.84000e-06
       2.98244      0.999952   4.17000e-06
       3.05219      0.999949   4.53000e-06
       3.19701      0.999942   5.34000e-06
       3.34810      0.999935   6.30000e-06
       3.50622      0.999927   7.42000e-06
       3.67239      0.999919   8.75000e-06
       3.84553      0.999911   1.03000e-05
       4.02794      0.999901   1.22000e-05
       4.21844      0.999891   1.43000e-05
       4.41682      0.999880   1.69000e-05
       4.62612      0.999868   1.98000e-05
       4.84486      0.999855   2.34000e-05
       5.07491      0.999840   2.75000e-05
       5.31419      0.999825   3.23000e-05
       5.56463      0.999807   3.80000e-05
       5.82887      0.999789   4.46000e-05
       6.10438      0.999768   5.24000e-05
       6.39402      0.999745   6.13000e-05
       6.69438      0.999722   7.18000e-05
       7.01244      0.999696   8.42000e-05
       7.34479      0.999668   9.84000e-05
       7.69107      0.999637   0.000115000
       8.05588      0.999605   0.000134000
       8.43401      0.999570   0.000156000
       8.83678      0.999533   0.000182000
       9.25224      0.999494   0.000211000
       9.68594      0.999452   0.000245000
       10.1457      0.999408   0.000285000
       10.6238      0.999363   0.000331000
       11.1293      0.999318   0.000385000
       11.6523      0.999274   0.000448000
       12.2028      0.999240   0.000520000
       12.7854      0.999209   0.000582000
       13.3902      0.999167   0.000657000
       14.0233      0.999139   0.000746000
       14.6861      0.999141   0.000834000
       15.3821      0.999114   0.000863000
       16.1076      0.999035   0.000958000
       16.8703      0.998983    0.00110000
       17.6685      0.998973    0.00127000
       18.5045      0.999018    0.00146000
       19.3779      0.999111    0.00166000
       20.2946      0.999339    0.00196000
       20.7706      0.999620    0.00214000
       21.2549       1.00023    0.00233000
       21.7509       1.00109   0.000500000
       22.2585       1.00018   0.000459000
       23.3133      0.999560   0.000453000
       24.4151      0.999210   0.000489000
       25.5682      0.998930   0.000537000
       26.7775      0.998670   0.000601000
       28.0434      0.998430   0.000673000
       29.3722      0.998180   0.000757000
       30.7643      0.997940   0.000866000
       32.2193      0.997700   0.000989000
       33.7361      0.997480    0.00109000
       35.3320      0.997230    0.00119000
       37.0090      0.996960    0.00131000
       38.7559      0.996690    0.00141000
       40.5827      0.996390    0.00151000
       42.5026      0.996050    0.00161000
       44.5171      0.995680    0.00171000
       46.6266      0.995300    0.00180000
       48.8302      0.994860    0.00186000
       51.1258      0.994360    0.00191000
       53.5551      0.993780    0.00194000
       56.0742      0.993120    0.00196000
       58.7305      0.992360    0.00193000
       61.5285      0.991440    0.00190000
       64.4387      0.990370    0.00184000
       67.4905      0.989100    0.00176000
       70.6439      0.987400    0.00171000
       74.0179      0.985600    0.00173000
       77.4875      0.983300    0.00179000
       81.1919      0.980500    0.00194000
       85.0343      0.976800    0.00243000
       87.0035      0.974700    0.00288000
       89.0022      0.972400    0.00364000
       91.0948      0.969900    0.00462000
       93.2180      0.967300    0.00587000
       95.4426      0.964400    0.00745000
       97.6220      0.961400    0.00945000
       99.9033      0.958100     0.0120000
       102.294      0.954700     0.0155000
       104.624      0.951500     0.0200000
       107.064      0.949300     0.0257000
       109.620      0.948300     0.0311000
       114.796      0.946900     0.0434000
       120.252      0.952200     0.0568000
       125.906      0.960000     0.0660000
       131.852      0.968000     0.0726000
       138.093      0.976700     0.0767000
       144.617      0.985400     0.0799000
       151.472      0.993760     0.0803000
       158.623       1.00126     0.0798000
       166.126       1.00741     0.0782000
       173.983       1.01400     0.0763000
       182.216       1.01930     0.0733000
       190.827       1.02500     0.0685000
       199.839       1.02780     0.0629000
       209.284       1.03110     0.0565000
       219.201       1.03020     0.0492000
       229.550       1.02860     0.0435000
       240.411       1.02650     0.0359000
       413.267      0.460000     0.0880000
       427.517      0.470000      0.130000
       442.786      0.480000      0.170000
       459.185      0.480000      0.190000
       476.846      0.500000      0.200000
       495.920      0.520000      0.230000
       516.583      0.540000      0.250000
       539.043      0.540000      0.260000
       563.545      0.560000      0.290000
       590.381      0.550000      0.330000
       619.900      0.500000      0.380000
       652.526      0.510000      0.400000
       688.778      0.520000      0.410000
       729.294      0.560000      0.460000
       774.875      0.640000      0.550000
       826.533      0.620000      0.700000
       855.034      0.620000      0.760000
       885.571      0.590000      0.870000
       918.370      0.610000      0.930000
       953.692      0.690000      0.940000
       991.840      0.850000      0.850000
       1033.17      0.870000      0.870000
       1078.09      0.840000      0.900000
       1127.09      0.840000       1.01000
       1180.76      0.980000      0.980000
       1239.80      0.990000       1.04000
       1305.05      0.960000       1.20000
       1377.56       2.27000       1.12000
       1416.91       2.35000       1.06000
       1458.59       2.39000       1.00000
       1502.79       2.45000      0.960000
       1549.75       2.59000      0.910000
       1599.74       2.61000      0.770000
       1653.07       2.60000      0.690000
       1710.07       2.57000      0.550000
       1771.14       2.48000      0.400000
       1836.74       2.35000      0.320000
       1907.38       2.19000      0.320000
       1983.68       2.04000      0.360000
       2066.33       1.94000      0.390000
       2156.17       1.82000      0.470000
       2254.18       1.74000      0.510000
       2361.52       1.59000      0.690000
       2479.60       1.47000      0.820000
       2610.11       1.39000       1.01000
       2755.11       1.28000       1.28000
       2917.18       1.27000       1.65000
       3099.50       1.32000       2.01000
       3306.13       1.50000       2.37000
       3542.29       1.72000       2.70000
       3814.77       2.02000       3.03000
       4039.75       2.37000       3.29000
       4132.67       2.51000       3.39000
       4165.99       2.56000       3.39000
       4300.38       2.77000       3.47000
       4427.86       3.03000       3.63000
       4443.73       3.01000       3.57000
       4596.96       3.27000       3.66000
       4761.14       3.55000       3.72000
       4768.46       3.57000       3.75000
       4892.66       3.76000       3.76000
       4985.12       3.91000       3.77000
       5079.07       4.07000       3.77000
       5165.83       4.24000       3.77000
       5178.78       4.25000       3.78000
       5280.24       4.43000       3.76000
       5388.09       4.62000       3.69000
       5498.00       4.81000       3.63000
       5612.49       5.01000       3.57000
       5635.45       5.10000       3.61000
       5734.51       5.26000       3.52000
       5992.27       5.67000       3.16000
       6128.52       5.82000       2.94000
       6199.00       5.94000       2.69000
       6274.29       5.97000       2.70000
       6423.83       6.07000       2.45000
       6584.17       6.11000       2.25000
       6749.05       6.12000       2.02000
       6887.78       6.10000       1.80000
       6926.26       6.09000       1.72000
       7108.95       6.04000       1.52000
       7305.83       5.95000       1.36000
       7509.39       5.87000       1.26000
       7729.43       5.86000       1.17000
       7748.75       5.88000       1.15000
       7962.75       5.84000       1.06000
       8205.16       5.78000      0.895000
       8468.58       5.68000      0.760000
       8743.30       5.59000      0.659000
       8855.71       5.56000      0.630000
       9536.92       5.36000      0.540000
       10331.7       5.17000      0.630000
       11270.9       5.33000      0.680000
       12398.0       5.35000      0.450000
       13775.6       5.22000      0.220000
       15497.5       5.10000      0.130000
       17711.4       4.95000      0.110000
       20663.3       4.93000       0.00000
       24796.0       4.90000       0.00000
       39993.5       4.92900   3.18000e-05
       49991.9       4.86400   2.19000e-05
       60009.7       4.83800       0.00000
       70005.6       4.82100       0.00000
       79987.1       4.80900       0.00000
       99983.9       4.79600   3.18000e-05
       120019.       4.78900       0.00000
       133326.       4.78000       0.00000
       139995.       4.78500       0.00000
       200000.       4.77000   0.000116000
       250010.       4.75000   0.000358000
       285734.       4.74000    0.00141000
       333280.       4.71000    0.00265000
       399936.       4.67000    0.00176000
       499919.       4.58000    0.00436000
       571336.       4.48000    0.00748000
       666559.       4.20000     0.0359000
       675640.       4.15000     0.0503000
       684972.       4.06000     0.0831000
       694566.       3.92000      0.188000
       704032.       3.87000      0.676000
       708862.       4.30000      0.873000
       714170.       4.63000      0.499000
       724606.       4.48000      0.156000
       735350.       4.34000     0.0835000
       769107.       4.10000     0.0535000
       799871.       3.90000     0.0635000
       833199.       3.65000     0.0894000
       869425.       3.28000      0.145000
       908944.       2.61000      0.298000
       952227.       1.16000       1.30000
       999839.      0.980000       4.11000
   1.02041e+06       1.30000       5.52000
   1.04185e+06       2.12000       7.48000
   1.06421e+06       4.86000      0.300000
   1.08185e+06       11.0000       9.84000
   1.08659e+06       12.1000       8.34000
   1.11093e+06       11.4000       2.68000
   1.13639e+06       9.61000       1.17000
   1.16304e+06       8.57000      0.657000
   1.19097e+06       7.91000      0.422000
   1.21908e+06       7.46000      0.294000
   1.26265e+06       7.13000      0.218000
   1.42851e+06       6.29000     0.0753000
   1.66662e+06       5.94000     0.0372000
   2.00000e+06       5.75000     0.0214000
   2.50010e+06       5.64000     0.0132000
   3.33280e+06       5.56000    0.00834000
   4.99919e+06       5.52000    0.00494000
   9.99839e+06       5.50000    0.00231000
