;  Atomic scattering factors for Ac.
;   
;  Concatenation of data from CXRO <http://www-cxro.lbl.gov>
;  and LLNL <http://www-phys.llnl.gov/V_Div/scattering/asf.html>
;  
;  E (eV) f1 f2
;---------------
       10.000000       -9999.0000        1.1948400
       10.161700       -9999.0000        1.1567200
       10.326100       -9999.0000        1.1198200
       10.493100       -9999.0000        1.0841000
       10.662800       -9999.0000        1.0495200
       10.835300       -9999.0000        1.0160400
       11.010600       -9999.0000       0.98234300
       11.188600       -9999.0000       0.94668900
       11.369600       -9999.0000       0.91233000
       11.553500       -9999.0000       0.88152400
       11.740400       -9999.0000       0.85905300
       11.930300       -9999.0000       0.83715200
       12.123200       -9999.0000       0.81581100
       12.319300       -9999.0000       0.79497000
       12.518600       -9999.0000       0.77379400
       12.721000       -9999.0000       0.75318200
       12.926800       -9999.0000       0.73311900
       13.135900       -9999.0000       0.71359100
       13.348300       -9999.0000       0.68799500
       13.564200       -9999.0000       0.66210000
       13.783600       -9999.0000       0.63718000
       14.006600       -9999.0000       0.61984000
       14.233100       -9999.0000       0.61337900
       14.463300       -9999.0000       0.60698400
       14.697300       -9999.0000       0.59751400
       14.935000       -9999.0000       0.58958200
       15.176500       -9999.0000       0.59309500
       15.422000       -9999.0000       0.60518600
       15.671400       -9999.0000       0.63924800
       15.924900       -9999.0000       0.73639700
       16.182500       -9999.0000       0.90161200
       16.444200       -9999.0000        1.0823400
       16.710200       -9999.0000        1.3384200
       16.980500       -9999.0000        1.6233400
       17.255100       -9999.0000        1.9685200
       17.534200       -9999.0000        2.4648000
       17.817800       -9999.0000        2.8640400
       18.106000       -9999.0000        3.2390400
       18.398900       -9999.0000        3.7311600
       18.696400       -9999.0000        4.2980700
       18.998800       -9999.0000        4.7624400
       19.306100       -9999.0000        5.2745300
       19.618400       -9999.0000        5.8416700
       19.935700       -9999.0000        6.4731500
       20.258200       -9999.0000        7.1738200
       20.585800       -9999.0000        7.8864600
       20.918800       -9999.0000        8.3333400
       21.257100       -9999.0000        8.8055500
       21.600900       -9999.0000        9.2914100
       21.950300       -9999.0000        9.7748700
       22.305300       -9999.0000        10.283500
       22.666100       -9999.0000        10.818600
       23.032700       -9999.0000        11.097900
       23.405300       -9999.0000        11.355000
       23.783800       -9999.0000        11.618100
       24.168500       -9999.0000        11.887300
       24.559400       -9999.0000        12.162700
       24.956600       -9999.0000        12.364400
       25.360300       -9999.0000        12.567200
       25.770500       -9999.0000        12.668400
       26.187300       -9999.0000        12.670000
       26.610900       -9999.0000        12.671500
       27.041300       -9999.0000        12.673100
       27.478600       -9999.0000        12.612100
       27.923100       -9999.0000        12.543400
       28.374700       -9999.0000        12.475200
       28.833700       -9999.0000        12.407300
       29.300000        12.424500        12.094100
       29.773900        12.926800        11.680000
       30.255500        13.315700        11.280600
       30.744900        13.658400        10.927900
       31.242100        13.987000        10.586200
       31.747500        14.332700        10.255200
       32.260900        14.684400        9.7987500
       32.782700        14.907600        9.3220300
       33.313000        15.055100        8.8685100
       33.851800        15.141700        8.4370500
       34.399300        15.181000        8.0819200
       34.955700        15.243900        7.7616800
       35.521100        15.321600        7.4541300
       36.095600        15.435900        7.1248100
       36.679400        15.494800        6.7299200
       37.272700        15.513400        6.3569200
       37.875500        15.491100        5.9576100
       38.488200        15.412900        5.5820700
       39.110700        15.284200        5.2352600
       39.743200        15.145700        4.9543700
       40.386100        15.010700        4.6885500
       41.039300        14.868600        4.4370000
       41.703100        14.717100        4.2032400
       42.377600        14.562100        3.9841300
       43.063000        14.401700        3.7764400
       43.759500        14.234700        3.5797500
       44.467300        14.061800        3.3940500
       45.186500        13.883400        3.2180000
       45.917400        13.700400        3.0510600
       46.660000        13.517200        2.8927900
       47.414700        13.323200        2.7199400
       48.181600        13.108500        2.5568400
       48.960900        12.876800        2.4035100
       49.752800        12.624800        2.2593800
       50.557600        12.344700        2.1483800
       51.375300        12.080900        2.0617500
       52.206200        11.820300        1.9786200
       53.050600        11.552800        1.8988300
       53.908700        11.271300        1.8247700
       54.780600        10.986500        1.7687400
       55.666700        10.698800        1.7144300
       56.567000        10.401900        1.6617900
       57.482000        10.092800        1.6139300
       58.411700        9.7724500        1.5687600
       59.356400        9.4371900        1.5248500
       60.316500        9.0833800        1.4830500
       61.292100        8.7082100        1.4428700
       62.283400        8.3041500        1.4037800
       63.290800        7.8736000        1.3823800
       64.314500        7.4151400        1.3619300
       65.354700        6.9204000        1.3598200
       66.411800        6.4007500        1.3664400
       67.485900        5.8331400        1.3898500
       68.577500        5.2493100        1.4228300
       69.686700        4.6187600        1.4508700
       70.813800        3.9278300        1.4808000
       71.959100        3.1637500        1.5119700
       73.123000        2.3014300        1.5438000
       74.305700        1.3271800        1.6119500
       75.507600       0.23136600        1.6897900
       76.728900       -1.0303500        1.7902600
       77.969900       -2.5134500        1.9028000
       79.231000       -4.3566700        2.0590000
       80.512500       -6.6594200        2.3128700
       81.814700       -9.9655500        2.8899100
       83.138000       -14.076000        4.5309900
       84.482700       -19.447700        7.4349400
       85.849100       -27.195300        18.597800
       87.237700       -19.302300        28.837800
       88.648700       -13.109000        31.713300
       90.082500       -9.8372900        33.532600
       91.539500       -6.7524900        35.383200
       93.020100       -3.9556200        36.548400
       94.524600       -1.4320100        37.751900
       96.053500        1.1068400        38.995000
       97.607100        3.9656000        39.890000
       99.185800        6.4903400        40.387700
       100.79000        8.9285000        40.891600
       102.42000        11.617100        41.255300
       104.07700        14.089400        41.196000
       105.76000        16.415000        41.136900
       107.47100        18.860000        40.940100
       109.20900        21.131700        40.531100
       110.97500        23.411600        40.126200
       112.77000        26.140300        39.725300
       114.59400        28.617800        38.071100
       116.44800        30.491600        36.466100
       118.33100        32.141200        34.928700
       120.24500        33.606000        33.157900
       122.19000        34.706500        31.384800
       124.16600        35.540800        29.706600
       126.17500        36.201000        28.118000
       128.21500        36.721100        26.614400
       130.28900        37.125700        25.191200
       132.39700        37.433700        23.844200
       134.53800        37.660000        22.569100
       136.71400        37.817000        21.362300
       138.92500        37.914700        20.220000
       141.17200        37.962100        19.138700
       143.45600        37.966700        18.115300
       145.77600        37.935700        17.146600
       148.13400        37.875400        16.229700
       150.53000        37.793000        15.361800
       152.96400        37.696700        14.540400
       155.43900        37.600700        13.762900
       157.95300        37.554300        13.026900
       160.50700        37.468000        12.138500
       163.10300        37.272800        11.291500
       165.74200        37.003600        10.503600
       168.42200        36.694400        9.7706500
       171.14600        36.355600        9.0888800
       173.91500        35.993600        8.4546600
       176.72700        35.613100        7.8647200
       179.58600        35.216700        7.3159200
       182.49100        34.806100        6.8054400
       185.44200        34.380500        6.3305700
       188.44200        33.935600        5.8888300
       191.48900        33.443600        5.4779300
       194.58700        32.972600        5.2086900
       197.73400        32.544600        4.9530700
       200.93200        32.142700        4.7099800
       204.18200        31.751200        4.4788300
       207.48500        31.364800        4.2590300
       210.84000        30.978100        4.0500000
       214.25100        30.568700        3.8634200
       217.71600        30.180400        3.7158800
       221.23700        29.809300        3.5739800
       224.81600        29.440700        3.4375000
       228.45200        29.063300        3.3062300
       232.14700        28.685900        3.2013200
       235.90200        28.314800        3.1026300
       239.71700        27.939400        3.0069800
       243.59500        27.528300        2.9289900
       247.53500        27.137600        2.8953500
       251.53800        26.764800        2.8621000
       255.60700        26.390800        2.8292200
       259.74100        26.000500        2.7967200
       263.94200        25.599200        2.7948200
       268.21100        25.210000        2.8075900
       272.54900        24.820900        2.8204200
       276.95700        24.415000        2.8333100
       281.43700        24.002100        2.8720500
       285.98900        23.589400        2.9149700
       290.61500        23.166300        2.9585400
       295.31500        22.713500        3.0027500
       300.09200        22.246200        3.0828400
       304.94500        21.773900        3.1692100
       309.87800        21.283500        3.2579900
       314.89000        20.764500        3.3492700
       319.98300        20.204600        3.4431000
       325.15800        19.555700        3.5395500
       330.41800        18.830700        3.7416800
       335.76200        18.095500        4.0157800
       341.19200        17.296000        4.3663400
       346.71100        16.517700        4.8402800
       352.31900        15.729400        5.3656800
       358.01700        14.945400        6.0267800
       363.80800        14.197300        6.7722900
       369.69200        13.488800        7.5857700
       375.67200        12.791000        8.4738800
       381.74800        12.077900        9.4833400
       387.92200        11.437700        10.658000
       394.19700        10.932400        11.978100
       400.57300        10.566100        13.361000
       407.05200        10.319400        14.851900
       413.63500        10.262400        16.458800
       420.32600        10.715700        18.007200
       427.12400        11.122500        19.221800
       434.03200        11.505400        20.518400
       441.05200        12.171500        21.741800
       448.18600        12.737400        22.679400
       455.43500        13.250500        23.657400
       462.80200        13.830300        24.677600
       470.28700        14.576200        25.617800
       477.89400        15.231700        26.363800
       485.62300        15.828800        27.131400
       493.47800        16.420800        27.921500
       501.45900        17.033200        28.734500
       509.57000        17.686100        29.571100
       517.81200        18.402300        30.432200
       526.18700        19.298200        31.318300
       534.69800        20.325700        31.979900
       543.34600        21.235200        32.475500
       552.13400        22.084100        32.978700
       561.06500        22.924300        33.489800
       570.13900        23.780000        34.008800
       579.36100        24.751600        34.535800
       588.73200        25.728700        34.878400
       598.25400        26.640800        35.198900
       607.93000        27.546200        35.522300
       617.76300        28.516000        35.848600
       627.75500        29.612600        36.045100
       637.90800        30.550400        35.999800
       648.22600        31.347000        35.954600
       658.71100        32.008700        35.909500
       669.36500        32.508500        35.981700
       680.19100        33.111900        36.271700
       691.19300        33.815900        36.564100
       702.37200        34.594300        36.858900
       713.73300        35.501900        37.156000
       725.27700        36.454900        37.229200
       737.00800        37.336000        37.237300
       748.92800        38.154700        37.245400
       761.04200        38.959700        37.253600
       773.35100        39.789100        37.261100
       785.85900        40.609000        37.211600
       798.57000        41.414700        37.162300
       811.48600        42.247200        37.113000
       824.61100        43.180500        36.959500
       837.94900        44.016900        36.643000
       851.50200        44.723800        36.316200
       865.27400        45.366600        35.978400
       879.26900        45.932300        35.631300
       893.49100        46.418800        35.287600
       907.94300        46.804600        34.947100
       922.62800        46.951300        34.609800
       937.55100        47.093500        34.747700
       952.71500        47.365000        35.008600
       968.12400        47.865500        35.380000
       983.78300        48.566200        35.755100
       999.69500        49.489700        36.062900
       1015.8600        50.735100        36.295900
       1032.2900        51.866700        35.845100
       1048.9900        52.780300        35.387800
       1065.9600        53.548600        34.929500
       1083.2000        54.239500        34.476000
       1100.7200        54.872400        34.028300
       1118.5200        55.459500        33.586400
       1136.6100        56.007500        33.148900
       1155.0000        56.521200        32.716900
       1173.6800        57.003900        32.290200
       1192.6600        57.457100        31.868300
       1211.9500        57.880500        31.451600
       1231.5500        58.266600        31.039800
       1251.4700        58.618200        30.661000
       1271.7200        58.947300        30.317500
       1292.2900        59.295000        30.015500
       1313.1900        59.655200        29.715000
       1334.4300        60.018500        29.417300
       1356.0100        60.383900        29.122500
       1377.9400        60.750900        28.829300
       1400.2300        61.120700        28.538600
       1422.8800        61.496900        28.250600
       1445.8900        61.886100        27.964200
       1469.2800        62.303600        27.662500
       1493.0400        62.753700        27.336700
       1517.1900        63.170500        26.902000
       1541.7300        63.529600        26.458400
       1566.6700        63.844100        26.021500
       1592.0100        64.131300        25.590400
       1617.7600        64.395900        25.166100
       1643.9200        64.641500        24.748400
       1670.5100        64.870700        24.336900
       1697.5300        65.085200        23.931900
       1724.9900        65.296400        23.533300
       1752.8900        65.493500        23.122000
       1781.2400        65.668800        22.711200
       1810.0500        65.823900        22.302300
       1839.3200        65.959300        21.900000
       1869.0700        66.078500        21.504700
       1899.3000        66.183100        21.116300
       1930.0200        66.273500        20.734000
       1961.2400        66.350100        20.358300
       1992.9600        66.409600        19.988900
       2025.2000        66.471800        19.637300
       2057.9500        66.523700        19.268000
       2091.2400        66.552600        18.901900
       2125.0600        66.565000        18.540200
       2159.4300        66.560100        18.181900
       2194.3600        66.538700        17.828600
       2229.8500        66.499700        17.478500
       2265.9200        66.442000        17.132700
       2302.5700        66.365100        16.791500
       2339.8100        66.268500        16.454600
       2377.6600        66.150300        16.121300
       2416.1100        66.008800        15.792600
       2455.1900        65.842900        15.468000
       2494.9000        65.649500        15.147000
       2535.2600        65.425800        14.830600
       2576.2600        65.168900        14.518400
       2617.9300        64.874400        14.210700
       2660.2700        64.537900        13.907800
       2703.3000        64.152700        13.608200
       2747.0300        63.709900        13.313000
       2791.4600        63.198900        13.022100
       2836.6100        62.604800        12.735400
       2882.4900        61.907000        12.452700
       2929.1100        61.075000        12.174000
       2976.4800        60.062600        11.899600
       3024.6300        58.792900        11.629300
       3073.5500        57.122700        11.363000
       3123.2600        54.730000        11.100500
       3173.7800        50.549700        10.841900
       3218.9000        18.927300        10.619500
       3219.1000        18.928300        26.690100
       3225.1100        39.924800        26.613200
       3277.2700        50.487500        25.959900
       3330.2800        51.335400        25.326000
       3370.1000        32.782200        24.866400
       3370.3000        32.792400        35.597900
       3384.1500        50.236900        35.375200
       3438.8800        57.445400        34.516700
       3494.5000        60.779000        33.681400
       3551.0200        63.065300        32.869300
       3608.4600        64.781300        32.076900
       3666.8200        66.098500        31.304200
       3726.1300        67.083000        30.552000
       3786.4000        67.715200        29.816900
       3847.6400        67.782300        29.102400
       3908.9000        59.241900        28.415600
       3909.1000        59.245800        33.088600
       3909.8700        62.483100        33.078700
       3973.1100        69.793200        32.280700
       4037.3800        71.601900        31.503000
       4102.6800        72.890100        30.744600
       4169.0300        73.919400        30.004700
       4236.4600        74.777400        29.284100
       4304.9800        75.502800        28.579900
       4374.6200        76.113600        27.894100
       4445.3700        76.614500        27.225500
       4517.2700        76.988600        26.573600
