;  Atomic scattering factors for Ag.
;   
;  Concatenation of data from CXRO <http://www-cxro.lbl.gov>
;  and LLNL <http://www-phys.llnl.gov/V_Div/scattering/asf.html>
;  
;  E (eV) f1 f2
;---------------
       10.000000       -9999.0000        1.1856600
       10.161700       -9999.0000        1.2294100
       10.326100       -9999.0000        1.2747800
       10.493100       -9999.0000        1.3218200
       10.662800       -9999.0000        1.3821500
       10.835300       -9999.0000        1.4554100
       11.010600       -9999.0000        1.5325600
       11.188600       -9999.0000        1.6137900
       11.369600       -9999.0000        1.6993300
       11.553500       -9999.0000        1.7875500
       11.740400       -9999.0000        1.8799600
       11.930300       -9999.0000        1.9771500
       12.123200       -9999.0000        2.0793600
       12.319300       -9999.0000        2.1868600
       12.518600       -9999.0000        2.2999200
       12.721000       -9999.0000        2.4182400
       12.926800       -9999.0000        2.5319700
       13.135900       -9999.0000        2.6510500
       13.348300       -9999.0000        2.7757200
       13.564200       -9999.0000        2.9062700
       13.783600       -9999.0000        3.0429400
       14.006600       -9999.0000        3.1860500
       14.233100       -9999.0000        3.3358900
       14.463300       -9999.0000        3.4768100
       14.697300       -9999.0000        3.6064400
       14.935000       -9999.0000        3.7409200
       15.176500       -9999.0000        3.8804000
       15.422000       -9999.0000        4.0250900
       15.671400       -9999.0000        4.1751700
       15.924900       -9999.0000        4.2971300
       16.182500       -9999.0000        4.4144100
       16.444200       -9999.0000        4.5348800
       16.710200       -9999.0000        4.6586500
       16.980500       -9999.0000        4.7857900
       17.255100       -9999.0000        4.9010600
       17.534200       -9999.0000        4.9893700
       17.817800       -9999.0000        5.0792600
       18.106000       -9999.0000        5.1707700
       18.398900       -9999.0000        5.2905500
       18.696400       -9999.0000        5.4598400
       18.998800       -9999.0000        5.6345500
       19.306100       -9999.0000        5.8148500
       19.618400       -9999.0000        6.0009100
       19.935700       -9999.0000        6.1929300
       20.258200       -9999.0000        6.4263100
       20.585800       -9999.0000        6.6728700
       20.918800       -9999.0000        6.9289000
       21.257100       -9999.0000        7.1947600
       21.600900       -9999.0000        7.4708100
       21.950300       -9999.0000        7.6977000
       22.305300       -9999.0000        7.9134100
       22.666100       -9999.0000        8.1351700
       23.032700       -9999.0000        8.3631300
       23.405300       -9999.0000        8.5975000
       23.783800       -9999.0000        8.8167900
       24.168500       -9999.0000        8.8726000
       24.559400       -9999.0000        8.9287700
       24.956600       -9999.0000        8.9853000
       25.360300       -9999.0000        9.0421800
       25.770500       -9999.0000        9.0994900
       26.187300       -9999.0000        9.2181700
       26.610900       -9999.0000        9.3383800
       27.041300       -9999.0000        9.4601800
       27.478600       -9999.0000        9.5835500
       27.923100       -9999.0000        9.7085300
       28.374700       -9999.0000        9.8444600
       28.833700       -9999.0000        10.030400
       29.300000       -1.8192200        10.219900
       29.773900       -1.7286800        10.413000
       30.255500       -1.6258700        10.609700
       30.744900       -1.5068300        10.810100
       31.242100       -1.3694200        10.996400
       31.747500       -1.2379400        11.176700
       32.260900       -1.1046900        11.360000
       32.782700      -0.96578000        11.546400
       33.313000      -0.81927700        11.735800
       33.851800      -0.66079100        11.928300
       34.399300      -0.48058500        12.123900
       34.955700      -0.28966700        12.280000
       35.521100      -0.11506800        12.430700
       36.095600      0.054422400        12.583200
       36.679400       0.22263500        12.737600
       37.272700       0.39126800        12.893900
       37.875500       0.56136500        13.052100
       38.488200       0.73375900        13.212300
       39.110700       0.90916300        13.374400
       39.743200        1.0883500        13.538500
       40.386100        1.2723600        13.704600
       41.039300        1.4640900        13.872800
       41.703100        1.6606200        14.032900
       42.377600        1.8570900        14.193600
       43.063000        2.0553900        14.356100
       43.759500        2.2572600        14.520600
       44.467300        2.4633300        14.686800
       45.186500        2.6743100        14.855000
       45.917400        2.8908600        15.025200
       46.660000        3.1140900        15.197200
       47.414700        3.3475200        15.371300
       48.181600        3.5878100        15.537500
       48.960900        3.8294000        15.703300
       49.752800        4.0751200        15.870700
       50.557600        4.3263200        16.040000
       51.375300        4.5840000        16.211100
       52.206200        4.8489100        16.384000
       53.050600        5.1219200        16.558800
       53.908700        5.4039400        16.735400
       54.780600        5.6961900        16.913900
       55.666700        6.0001300        17.094300
       56.567000        6.3181400        17.276600
       57.482000        6.6596500        17.460900
       58.411700        7.0255400        17.623000
       59.356400        7.3842500        17.764800
       60.316500        7.7430000        17.907700
       61.292100        8.1077300        18.051800
       62.283400        8.4813200        18.197100
       63.290800        8.8659700        18.343500
       64.314500        9.2638700        18.491100
       65.354700        9.6772700        18.640000
       66.411800        10.109500        18.790300
       67.485900        10.564400        18.941900
       68.577500        11.048100        19.094600
       69.686700        11.572300        19.248600
       70.813800        12.188000        19.391600
       71.959100        12.792800        19.399500
       73.123000        13.376300        19.407300
       74.305700        13.965900        19.415200
       75.507600        14.604200        19.423100
       76.728900        15.271600        19.326900
       77.969900        15.902700        19.183700
       79.231000        16.502200        19.041600
       80.512500        17.113600        18.900600
       81.814700        17.738000        18.725200
       83.138000        18.359400        18.533000
       84.482700        18.987500        18.342800
       85.849100        19.639900        18.154600
       87.237700        20.451500        17.968200
       88.648700        21.268400        17.544900
       90.082500        21.989800        17.094800
       91.539500        22.699800        16.656200
       93.020100        23.651800        16.228800
       94.524600        24.648800        15.395800
       96.053500        25.379800        14.367800
       97.607100        26.174800        13.358800
       99.185800        26.617000        11.809600
       100.79000        26.648600        10.440100
       102.42000        26.494500        9.2294000
       104.07700        26.221800        8.1590700
       105.76000        25.890800        7.2129000
       107.47100        25.521200        6.3532000
       109.20900        25.085500        5.5420400
       110.97500        24.590900        4.8344400
       112.77000        24.070600        4.2171800
       114.59400        23.532100        3.6787200
       116.44800        22.948300        3.2090400
       118.33100        22.349700        2.8708000
       120.24500        21.828500        2.6521800
       122.19000        21.369600        2.4502100
       124.16600        20.939100        2.2636300
       126.17500        20.518600        2.0912500
       128.21500        20.108100        1.9593400
       130.28900        19.722400        1.8448000
       132.39700        19.328200        1.7369500
       134.53800        18.941700        1.6890500
       136.71400        18.593900        1.6483800
       138.92500        18.251800        1.6262200
       141.17200        17.919300        1.6176600
       143.45600        17.601700        1.6474700
       145.77600        17.316600        1.6754700
       148.13400        17.030000        1.7017600
       150.53000        16.738600        1.7639400
       152.96400        16.473500        1.8444400
       155.43900        16.225300        1.9286100
       157.95300        15.975900        2.0166200
       160.50700        15.719300        2.1501500
       163.10300        15.501700        2.3206000
       165.74200        15.330700        2.5038500
       168.42200        15.193800        2.6803100
       171.14600        15.096000        2.8672100
       173.91500        15.027100        3.0022300
       176.72700        14.948200        3.1436100
       179.58600        14.894700        3.2916500
       182.49100        14.862700        3.3918500
       185.44200        14.814600        3.4917200
       188.44200        14.776200        3.5945300
       191.48900        14.749900        3.6845900
       194.58700        14.718100        3.7570500
       197.73400        14.682900        3.8288300
       200.93200        14.645200        3.8904300
       204.18200        14.601500        3.9530200
       207.48500        14.555700        4.0166100
       210.84000        14.509000        4.0812400
       214.25100        14.462200        4.1469000
       217.71600        14.415900        4.2136100
       221.23700        14.370500        4.2814000
       224.81600        14.326600        4.3502800
       228.45200        14.285200        4.4202800
       232.14700        14.247400        4.4913900
       235.90200        14.223200        4.5636500
       239.71700        14.212300        4.6108500
       243.59500        14.176800        4.6479400
       247.53500        14.134700        4.6853300
       251.53800        14.088200        4.7230100
       255.60700        14.039600        4.7610000
       259.74100        13.991600        4.7911500
       263.94200        13.932800        4.8175800
       268.21100        13.868300        4.8441500
       272.54900        13.801300        4.8708600
       276.95700        13.740700        4.8974700
       281.43700        13.673300        4.8821100
       285.98900        13.574400        4.8668200
       290.61500        13.456800        4.8515600
       295.31500        13.322700        4.8362100
       300.09200        13.172700        4.8207700
       304.94500        13.014000        4.8053700
       309.87800        12.841200        4.7569100
       314.89000        12.611500        4.7003100
       319.98300        12.333000        4.6585000
       325.15800        12.043200        4.6303100
       330.41800        11.736400        4.5624600
       335.76200        11.298400        4.4794200
       341.19200        10.757400        4.4599400
       346.71100        10.194600        4.5224200
       352.31900        9.5539500        4.5811700
       358.01700        8.8443100        4.7293200
       363.80800        8.0490600        4.9462400
       369.69200        7.1577500        5.1971800
       375.67200        6.0969100        5.5887900
       381.74800        4.7010900        6.3029700
       387.92200        3.3944000        7.4067100
       394.19700        2.2255300        9.2306200
       400.57300        1.5557000        11.313800
       407.05200        1.6027900        13.451000
       413.63500        1.8738500        15.523500
       420.32600        2.5504700        17.448100
       427.12400        3.7645200        18.974900
       434.03200        4.8940700        20.222200
       441.05200        5.9464000        21.028700
       448.18600        6.9195300        21.867300
       455.43500        7.8554800        22.531700
       462.80200        8.7424100        23.209200
       470.28700        9.6891800        23.907100
       477.89400        10.674200        24.432200
       485.62300        11.698300        24.956600
       493.47800        12.689100        25.219400
       501.45900        13.562500        25.474000
       509.57000        14.388600        25.731200
       517.81200        15.201200        25.991100
       526.18700        16.027700        26.221200
       534.69800        16.819400        26.420200
       543.34600        17.600000        26.620700
       552.13400        18.387400        26.822700
       561.06500        19.202400        27.026200
       570.13900        20.106600        27.231300
       579.36100        21.090300        27.239200
       588.73200        21.931800        27.130100
       598.25400        22.696500        27.021400
       607.93000        23.417100        26.913200
       617.76300        24.108000        26.805400
       627.75500        24.776600        26.694400
       637.90800        25.425400        26.582400
       648.22600        26.059400        26.470800
       658.71100        26.683600        26.359700
       669.36500        27.302000        26.249100
       680.19100        27.919200        26.138900
       691.19300        28.540900        26.029300
       702.37200        29.175600        25.920000
       713.73300        29.841100        25.811300
       725.27700        30.613400        25.702900
       737.00800        31.338600        25.317200
       748.92800        31.943300        24.930000
       761.04200        32.429200        24.605000
       773.35100        32.940500        24.353900
       785.85900        33.532800        24.105400
       798.57000        34.173500        23.737500
       811.48600        34.680800        23.253700
       824.61100        35.035700        22.783700
       837.94900        35.396000        22.508900
       851.50200        35.806200        22.237400
       865.27400        36.361900        21.969200
       879.26900        36.886200        21.460300
       893.49100        37.263800        20.927000
       907.94300        37.538000        20.407000
       922.62800        37.733700        19.984500
       937.55100        37.948800        19.633600
       952.71500        38.202000        19.280600
       968.12400        38.444500        18.919000
       983.78300        38.673200        18.564900
       999.69500        38.894100        18.215600
       1015.8600        39.113900        17.871000
       1032.2900        39.321800        17.516400
       1048.9900        39.513800        17.164800
       1065.9600        39.690900        16.816100
       1083.2000        39.853800        16.474600
       1100.7200        40.005700        16.140000
       1118.5200        40.147400        15.812200
       1136.6100        40.279900        15.491200
       1155.0000        40.404200        15.176700
       1173.6800        40.520400        14.868500
       1192.6600        40.629100        14.566500
       1211.9500        40.730900        14.270600
       1231.5500        40.825700        13.980700
       1251.4700        40.914400        13.697200
       1271.7200        40.997400        13.419800
       1292.2900        41.075200        13.148300
       1313.1900        41.148500        12.882500
       1334.4300        41.217300        12.622100
       1356.0100        41.282100        12.366900
       1377.9400        41.343100        12.116900
       1400.2300        41.400900        11.871900
       1422.8800        41.456000        11.631900
       1445.8900        41.510700        11.396700
       1469.2800        41.564400        11.163400
       1493.0400        41.622600        10.930600
       1517.1900        41.674900        10.685000
       1541.7300        41.710000        10.442500
       1566.6700        41.737300        10.205500
       1592.0100        41.758000        9.9740500
       1617.7600        41.773100        9.7478000
       1643.9200        41.783200        9.5265600
       1670.5100        41.788700        9.3102100
       1697.5300        41.790100        9.0988400
       1724.9900        41.788800        8.8924200
       1752.8900        41.784700        8.6865700
       1781.2400        41.774600        8.4839500
       1810.0500        41.758600        8.2847000
       1839.3200        41.737400        8.0905500
       1869.0700        41.712000        7.9008900
       1899.3000        41.682300        7.7153900
       1930.0200        41.648200        7.5344600
       1961.2400        41.610300        7.3578600
       1992.9600        41.567900        7.1854500
       2025.2000        41.522500        7.0191500
       2057.9500        41.475500        6.8533900
       2091.2400        41.422800        6.6907100
       2125.0600        41.365100        6.5317400
       2159.4300        41.302700        6.3765300
       2194.3600        41.235600        6.2248900
       2229.8500        41.163700        6.0770100
       2265.9200        41.086800        5.9323000
       2302.5700        41.004600        5.7910500
       2339.8100        40.916600        5.6531300
       2377.6600        40.822600        5.5184800
       2416.1100        40.722100        5.3870700
       2455.1900        40.614700        5.2588400
       2494.9000        40.499700        5.1337000
       2535.2600        40.376300        5.0116300
       2576.2600        40.243700        4.8925600
       2617.9300        40.100800        4.7764200
       2660.2700        39.946200        4.6631100
       2703.3000        39.778400        4.5526700
       2747.0300        39.595300        4.4450100
       2791.4600        39.394500        4.3399800
       2836.6100        39.172700        4.2375900
       2882.4900        38.925700        4.1378500
       2929.1100        38.647900        4.0406200
       2976.4800        38.331800        3.9458700
       3024.6300        37.966200        3.8535300
       3073.5500        37.534900        3.7636100
       3123.2600        37.011500        3.6759600
       3173.7800        36.349900        3.5905600
       3225.1100        35.456400        3.5073800
       3277.2700        34.084100        3.4263700
       3330.2800        30.946700        3.3474300
       3351.0000        18.161000        3.3174200
       3351.2000        18.161800        10.826000
       3384.1500        31.920100        10.667800
       3438.8800        33.815000        10.413500
       3494.5000        33.839100        10.165700
       3523.6000        27.638500        10.039900
       3523.8000        27.642200        13.750200
       3551.0200        34.666100        13.592300
       3608.4600        36.621300        13.268900
       3666.8200        37.655200        12.953200
       3726.1300        38.276800        12.644400
       3786.4000        38.076000        12.343500
       3805.7000        35.747600        12.249600
       3805.9000        35.753400        14.038800
       3847.6400        39.300500        13.825800
       3909.8700        40.363600        13.518200
       3973.1100        41.114800        13.215500
       4037.3800        41.726700        12.915500
       4102.6800        42.249200        12.620800
       4169.0300        42.707500        12.330100
       4236.4600        43.114400        12.043900
       4304.9800        43.479400        11.762600
       4374.6200        43.810100        11.486300
       4445.3700        44.110400        11.213600
       4517.2700        44.384000        10.946000
