;  Atomic scattering factors for Ar.
;   
;  Concatenation of data from CXRO <http://www-cxro.lbl.gov>
;  and LLNL <http://www-phys.llnl.gov/V_Div/scattering/asf.html>
;  
;  E (eV) f1 f2
;---------------
       10.000000       -9999.0000    9.4937500e-16
       10.161700       -9999.0000    9.6473100e-16
       10.326100       -9999.0000    9.8033500e-16
       10.493100       -9999.0000    9.9619100e-16
       10.662800       -9999.0000    1.0123000e-15
       10.835300       -9999.0000    1.0286800e-15
       11.010600       -9999.0000    1.0453100e-15
       11.188600       -9999.0000    1.0622200e-15
       11.369600       -9999.0000    1.0794000e-15
       11.553500       -9999.0000    1.0968600e-15
       11.740400       -9999.0000    1.1146000e-15
       11.930300       -9999.0000    1.1326300e-15
       12.123200       -9999.0000    1.1509500e-15
       12.319300       -9999.0000    1.1695600e-15
       12.518600       -9999.0000    1.1884800e-15
       12.721000       -9999.0000    1.2077000e-15
       12.926800       -9999.0000    1.2272400e-15
       13.135900       -9999.0000    1.2470900e-15
       13.348300       -9999.0000    1.2672600e-15
       13.564200       -9999.0000    1.2877600e-15
       13.783600       -9999.0000    1.3085800e-15
       14.006600       -9999.0000    1.3297500e-15
       14.233100       -9999.0000    1.3512600e-15
       14.463300       -9999.0000    1.3731100e-15
       14.697300       -9999.0000    1.3953200e-15
       14.935000       -9999.0000    1.4178900e-15
       15.176500       -9999.0000    1.4408200e-15
       15.422000       -9999.0000    1.4641300e-15
       15.671400       -9999.0000    1.4878100e-15
       15.700000       -9999.0000    1.4905200e-15
       15.900000       -9999.0000        7.3778000
       15.924900       -9999.0000        7.4016900
       16.182500       -9999.0000        7.6509700
       16.444200       -9999.0000        7.9086500
       16.710200       -9999.0000        8.1750000
       16.980500       -9999.0000        8.4503300
       17.255100       -9999.0000        8.7186600
       17.534200       -9999.0000        8.9948900
       17.817800       -9999.0000        9.2798800
       18.106000       -9999.0000        9.5739000
       18.398900       -9999.0000        9.8772200
       18.696400       -9999.0000        10.076900
       18.998800       -9999.0000        10.221200
       19.306100       -9999.0000        10.367500
       19.618400       -9999.0000        10.515900
       19.935700       -9999.0000        10.666500
       20.258200       -9999.0000        10.816700
       20.585800       -9999.0000        10.966800
       20.918800       -9999.0000        11.118900
       21.257100       -9999.0000        11.273100
       21.600900       -9999.0000        11.429500
       21.950300       -9999.0000        11.588000
       22.305300       -9999.0000        11.709700
       22.666100       -9999.0000        11.809800
       23.032700       -9999.0000        11.910700
       23.405300       -9999.0000        12.012500
       23.783800       -9999.0000        12.115200
       24.168500       -9999.0000        12.218700
       24.559400       -9999.0000        12.323100
       24.956600       -9999.0000        12.428500
       25.360300       -9999.0000        12.506800
       25.770500       -9999.0000        12.500300
       26.187300       -9999.0000        12.493900
       26.610900       -9999.0000        12.487500
       27.041300       -9999.0000        12.481100
       27.478600       -9999.0000        12.474600
       27.923100       -9999.0000        12.427600
       28.374700       -9999.0000        12.274900
       28.833700       -9999.0000        12.124100
       29.300000        7.1682100        11.975200
       29.773900        7.6693200        11.828000
       30.255500        8.2734000        11.612700
       30.744900        8.8170700        11.206900
       31.242100        9.2176200        10.815200
       31.747500        9.5811300        10.437300
       32.260900        9.9202400        10.072600
       32.782700        10.255600        9.7205600
       33.313000        10.610900        9.3398700
       33.851800        10.929300        8.9050900
       34.399300        11.193700        8.4905400
       34.955700        11.456800        8.0952900
       35.521100        11.751000        7.7184500
       36.095600        12.216300        7.3453900
       36.679400        12.565800        6.5340800
       37.272700        12.664200        5.8123800
       37.875500        12.804000        5.1703900
       38.488200        12.851200        4.3344500
       39.110700        12.625200        3.5412700
       39.743200        12.285800        2.8932400
       40.386100        11.906000        2.3637900
       41.039300        11.504800        1.9312200
       41.703100        11.102700        1.5778200
       42.377600        10.693200        1.2907800
       43.063000        10.309000        1.0893800
       43.759500        9.9515100       0.91940900
       44.467300        9.5950800       0.79149400
       45.186500        9.2724300       0.72683900
       45.917400        8.9824900       0.66746500
       46.660000        8.7143000       0.64919300
       47.414700        8.4884900       0.64095500
       48.181600        8.2832700       0.63282100
       48.960900        8.0945500       0.63133600
       49.752800        7.9214700       0.63070100
       50.557600        7.7501600       0.63024000
       51.375300        7.5898500       0.64842600
       52.206200        7.4489700       0.66713700
       53.050600        7.3174600       0.68638800
       53.908700        7.1901800       0.70619400
       54.780600        7.0692300       0.73353100
       55.666700        6.9587800       0.76524100
       56.567000        6.8564500       0.79832200
       57.482000        6.7604600       0.83283300
       58.411700        6.6687900       0.86895600
       59.356400        6.5831400       0.91192500
       60.316500        6.5057500       0.95702000
       61.292100        6.4352900        1.0043500
       62.283400        6.3719800        1.0540100
       63.290800        6.3164300        1.1061300
       64.314500        6.2718000        1.1608300
       65.354700        6.2392400        1.2075300
       66.411800        6.2077600        1.2456000
       67.485900        6.1738900        1.2848800
       68.577500        6.1431600        1.3253800
       69.686700        6.1160900        1.3671700
       70.813800        6.0932300        1.4102700
       71.959100        6.0822600        1.4547400
       73.123000        6.0749700        1.4859000
       74.305700        6.0624000        1.5168900
       75.507600        6.0514200        1.5485300
       76.728900        6.0425600        1.5808300
       77.969900        6.0365300        1.6138100
       79.231000        6.0385100        1.6474700
       80.512500        6.0456000        1.6729000
       81.814700        6.0491200        1.6902300
       83.138000        6.0494400        1.7077300
       84.482700        6.0489500        1.7254100
       85.849100        6.0483600        1.7432800
       87.237700        6.0480700        1.7613300
       88.648700        6.0483900        1.7795700
       90.082500        6.0495700        1.7980000
       91.539500        6.0519300        1.8166100
       93.020100        6.0558400        1.8354200
       94.524600        6.0617600        1.8544300
       96.053500        6.0731800        1.8736300
       97.607100        6.0898700        1.8874600
       99.185800        6.1037900        1.8894300
       100.79000        6.1119300        1.8913900
       102.42000        6.1176900        1.8933600
       104.07700        6.1219200        1.8953300
       105.76000        6.1250600        1.8973000
       107.47100        6.1274100        1.8992700
       109.20900        6.1292200        1.9012500
       110.97500        6.1307500        1.9032200
       112.77000        6.1323500        1.9052000
       114.59400        6.1345400        1.9071800
       116.44800        6.1383700        1.9091700
       118.33100        6.1480000        1.9111500
       120.24500        6.1604400        1.8969700
       122.19000        6.1632400        1.8760900
       124.16600        6.1571000        1.8554400
       126.17500        6.1463400        1.8350200
       128.21500        6.1312800        1.8148200
       130.28900        6.1121800        1.7948500
       132.39700        6.0890800        1.7750900
       134.53800        6.0619100        1.7555600
       136.71400        6.0285800        1.7362400
       138.92500        5.9900500        1.7208500
       141.17200        5.9506400        1.7107900
       143.45600        5.9108500        1.7007900
       145.77600        5.8690200        1.6908500
       148.13400        5.8246200        1.6809600
       150.53000        5.7772600        1.6711400
       152.96400        5.7266400        1.6613700
       155.43900        5.6724500        1.6516600
       157.95300        5.6144000        1.6420000
       160.50700        5.5521700        1.6324000
       163.10300        5.4854600        1.6228600
       165.74200        5.4139300        1.6133800
       168.42200        5.3372900        1.6039400
       171.14600        5.2553700        1.5945700
       173.91500        5.1688000        1.5852500
       176.72700        5.0767600        1.5712100
       179.58600        4.9740000        1.5538500
       182.49100        4.8590500        1.5366700
       185.44200        4.7331600        1.5196900
       188.44200        4.5958100        1.5028900
       191.48900        4.4485100        1.4862800
       194.58700        4.2860000        1.4577100
       197.73400        4.0979700        1.4278700
       200.93200        3.8847300        1.3986400
       204.18200        3.6442600        1.3700000
       207.48500        3.3722900        1.3419500
       210.84000        3.0629000        1.3144800
       214.25100        2.7074200        1.2888500
       217.71600        2.2982400        1.2675500
       221.23700        1.8228900        1.2466000
       224.81600        1.2577900        1.2260000
       228.45200       0.56978200        1.2057400
       232.14700      -0.29621900        1.1858100
       235.90200       -1.4408900        1.1654400
       239.71700       -3.0867100        1.1420600
       243.59500       -5.8774100        1.1191600
       247.53500       -14.457100        1.0967100
       248.30000       -25.689600        1.0924400
       248.50000       -25.634200        17.629000
       251.53800       -7.0836600        17.258200
       255.60700       -2.4034400        16.780500
       259.74100       0.16692700        16.316100
       263.94200        1.9186900        15.874800
       268.21100        3.2448400        15.514100
       272.54900        4.3317500        15.161500
       276.95700        5.2602900        14.816000
       281.43700        6.0381300        14.416400
       285.98900        6.6430700        14.027500
       290.61500        7.1187900        13.649100
       295.31500        7.3398200        13.290100
       300.09200        7.5014300        13.304900
       304.94500        7.8625800        13.319700
       309.87800        8.2343500        13.334500
       314.89000        8.6241300        13.349300
       319.98300        9.0301000        13.364200
       325.15800        9.4550800        13.379000
       330.41800        9.9059600        13.393900
       335.76200        10.425800        13.408800
       341.19200        11.046900        13.377500
       346.71100        11.641000        13.032600
       352.31900        12.056400        12.696600
       358.01700        12.368900        12.376000
       363.80800        12.636400        12.130800
       369.69200        12.914000        11.890400
       375.67200        13.170700        11.654900
       381.74800        13.411700        11.423900
       387.92200        13.636500        11.193900
       394.19700        13.843500        10.968500
       400.57300        14.035700        10.747700
       407.05200        14.213500        10.531300
       413.63500        14.377300        10.319200
       420.32600        14.526200        10.111400
       427.12400        14.655000        9.9078600
       434.03200        14.765600        9.7333100
       441.05200        14.882600        9.5774900
       448.18600        15.007100        9.4241700
       455.43500        15.130100        9.2733000
       462.80200        15.251400        9.1248400
       470.28700        15.370600        8.9787600
       477.89400        15.487400        8.8350200
       485.62300        15.602000        8.6935800
       493.47800        15.714700        8.5544000
       501.45900        15.825800        8.4174600
       509.57000        15.935900        8.2827100
       517.81200        16.045900        8.1501200
       526.18700        16.163300        8.0196400
       534.69800        16.282600        7.8757900
       543.34600        16.389900        7.7269600
       552.13400        16.494600        7.5807600
       561.06500        16.596800        7.4227900
       570.13900        16.684100        7.2619400
       579.36100        16.759600        7.1086700
       588.73200        16.830700        6.9600600
       598.25400        16.898300        6.8154700
       607.93000        16.963000        6.6740100
       617.76300        17.025600        6.5354200
       627.75500        17.087100        6.3992000
       637.90800        17.149600        6.2603900
       648.22600        17.207200        6.1165700
       658.71100        17.253000        5.9708700
       669.36500        17.287100        5.8285000
       680.19100        17.311300        5.7022500
       691.19300        17.339800        5.5883900
       702.37200        17.380000        5.4789000
       713.73300        17.424100        5.3613700
       725.27700        17.460800        5.2394800
       737.00800        17.493000        5.1203900
       748.92800        17.522800        5.0040100
       761.04200        17.551400        4.8901000
       773.35100        17.581300        4.7770400
       785.85900        17.610100        4.6605700
       798.57000        17.631800        4.5420700
       811.48600        17.648100        4.4266100
       824.61100        17.660700        4.3140500
       837.94900        17.670000        4.2043100
       851.50200        17.676100        4.0984300
       865.27400        17.680400        3.9962400
       879.26900        17.683900        3.8975100
       893.49100        17.686600        3.8011900
       907.94300        17.688400        3.7072600
       922.62800        17.689800        3.6156700
       937.55100        17.690600        3.5243100
       952.71500        17.689400        3.4347800
       968.12400        17.686600        3.3471200
       983.78300        17.682300        3.2616800
       999.69500        17.676800        3.1784900
       1015.8600        17.670500        3.0975000
       1032.2900        17.664100        3.0191400
       1048.9900        17.657800        2.9413300
       1065.9600        17.649700        2.8639900
       1083.2000        17.640000        2.7887100
       1100.7200        17.629200        2.7154200
       1118.5200        17.617500        2.6440400
       1136.6100        17.605000        2.5745800
       1155.0000        17.591900        2.5069100
       1173.6800        17.578100        2.4409600
       1192.6600        17.563700        2.3768400
       1211.9500        17.549100        2.3143800
       1231.5500        17.534100        2.2535400
       1251.4700        17.519100        2.1937100
       1271.7200        17.503500        2.1349600
       1292.2900        17.486900        2.0771700
       1313.1900        17.469500        2.0208500
       1334.4300        17.451300        1.9660600
       1356.0100        17.432500        1.9127600
       1377.9400        17.413100        1.8609300
       1400.2300        17.393200        1.8105300
       1422.8800        17.372800        1.7615300
       1445.8900        17.351800        1.7137700
       1469.2800        17.329800        1.6675800
       1493.0400        17.307100        1.6230900
       1517.1900        17.284100        1.5815100
       1541.7300        17.262000        1.5412600
       1566.6700        17.240200        1.5020500
       1592.0100        17.218400        1.4637800
       1617.7600        17.196500        1.4264900
       1643.9200        17.174500        1.3901700
       1670.5100        17.152400        1.3547700
       1697.5300        17.130100        1.3202700
       1724.9900        17.107800        1.2866500
       1752.8900        17.085300        1.2534700
       1781.2400        17.062200        1.2210100
       1810.0500        17.038600        1.1892700
       1839.3200        17.014500        1.1583600
       1869.0700        16.989800        1.1282600
       1899.3000        16.964600        1.0989500
       1930.0200        16.938900        1.0703900
       1961.2400        16.912600        1.0425700
       1992.9600        16.885500        1.0154800
       2025.2000        16.857900       0.98948700
       2057.9500        16.829900       0.96346000
       2091.2400        16.800600       0.93805400
       2125.0600        16.770300       0.91324900
       2159.4300        16.738900       0.88903100
       2194.3600        16.706200       0.86537900
       2229.8500        16.672100       0.84227500
       2265.9200        16.636400       0.81972800
       2302.5700        16.599000       0.79772100
       2339.8100        16.559700       0.77621000
       2377.6600        16.518200       0.75521300
       2416.1100        16.474300       0.73471500
       2455.1900        16.427500       0.71469400
       2494.9000        16.377500       0.69515200
       2535.2600        16.323700       0.67605000
       2576.2600        16.265700       0.65739200
       2617.9300        16.202500       0.63919100
       2660.2700        16.133400       0.62139700
       2703.3000        16.057000       0.60402600
       2747.0300        15.971800       0.58706700
       2791.4600        15.875600       0.57049800
       2836.6100        15.765600       0.55431300
       2882.4900        15.637400       0.53849700
       2929.1100        15.484600       0.52303300
       2976.4800        15.297100       0.50795500
       3024.6300        15.056700       0.49321900
       3073.5500        14.727300       0.47881800
       3123.2600        14.218100       0.46473200
       3173.7800        13.152100       0.45098400
       3205.8000        6.2420100       0.44258900
       3206.0000        6.2430900        4.2442700
       3225.1100        12.653600        4.2073500
       3277.2700        14.322900        4.1092300
       3330.2800        15.052600        4.0121800
       3384.1500        15.532200        3.9170500
       3438.8800        15.891100        3.8234300
       3494.5000        16.177600        3.7315900
       3551.0200        16.415700        3.6411000
       3608.4600        16.618300        3.5520600
       3666.8200        16.793800        3.4648300
       3726.1300        16.948000        3.3792700
       3786.4000        17.084900        3.2952500
       3847.6400        17.207200        3.2128800
       3909.8700        17.317300        3.1321200
       3973.1100        17.416900        3.0529900
       4037.3800        17.507200        2.9754300
       4102.6800        17.589400        2.8994600
       4169.0300        17.664400        2.8250900
       4236.4600        17.733000        2.7523000
       4304.9800        17.795900        2.6810800
       4374.6200        17.853500        2.6113800
       4445.3700        17.906400        2.5431800
       4517.2700        17.955000        2.4765300
