;  Atomic scattering factors for At.
;   
;  Concatenation of data from CXRO <http://www-cxro.lbl.gov>
;  and LLNL <http://www-phys.llnl.gov/V_Div/scattering/asf.html>
;  
;  E (eV) f1 f2
;---------------
       10.000000       -9999.0000        8.7814400
       10.161700       -9999.0000        8.8732100
       10.326100       -9999.0000        8.9659300
       10.493100       -9999.0000        9.0483600
       10.662800       -9999.0000        9.0853200
       10.835300       -9999.0000        9.1224400
       11.010600       -9999.0000        9.1597000
       11.188600       -9999.0000        9.1933000
       11.369600       -9999.0000        9.1514200
       11.553500       -9999.0000        9.1097300
       11.740400       -9999.0000        9.0682300
       11.930300       -9999.0000        9.0269200
       12.123200       -9999.0000        8.9858100
       12.319300       -9999.0000        8.9448700
       12.518600       -9999.0000        8.9041300
       12.721000       -9999.0000        8.8606000
       12.926800       -9999.0000        8.8128400
       13.135900       -9999.0000        8.7653300
       13.348300       -9999.0000        8.7180800
       13.564200       -9999.0000        8.6710800
       13.783600       -9999.0000        8.6243400
       14.006600       -9999.0000        8.5778500
       14.233100       -9999.0000        8.5309000
       14.463300       -9999.0000        8.4841700
       14.697300       -9999.0000        8.4376800
       14.935000       -9999.0000        8.3914500
       15.176500       -9999.0000        8.3454800
       15.422000       -9999.0000        8.2997600
       15.671400       -9999.0000        8.2542900
       15.924900       -9999.0000        8.2090600
       16.182500       -9999.0000        8.1619800
       16.444200       -9999.0000        8.1144400
       16.710200       -9999.0000        8.0671900
       16.980500       -9999.0000        8.0202100
       17.255100       -9999.0000        7.9735100
       17.534200       -9999.0000        7.9270700
       17.817800       -9999.0000        7.8753000
       18.106000       -9999.0000        7.7724600
       18.398900       -9999.0000        7.6709600
       18.696400       -9999.0000        7.5707900
       18.998800       -9999.0000        7.4719200
       19.306100       -9999.0000        7.3743400
       19.618400       -9999.0000        7.2780400
       19.935700       -9999.0000        7.1209500
       20.258200       -9999.0000        6.9525700
       20.585800       -9999.0000        6.7881800
       20.918800       -9999.0000        6.6276700
       21.257100       -9999.0000        6.4696700
       21.600900       -9999.0000        6.2568400
       21.950300       -9999.0000        6.0510100
       22.305300       -9999.0000        5.8519500
       22.666100       -9999.0000        5.6594400
       23.032700       -9999.0000        5.4732600
       23.405300       -9999.0000        5.2932100
       23.783800       -9999.0000        5.0970200
       24.168500       -9999.0000        4.8643700
       24.559400       -9999.0000        4.6423300
       24.956600       -9999.0000        4.4304200
       25.360300       -9999.0000        4.2281900
       25.770500       -9999.0000        4.0351900
       26.187300       -9999.0000        3.8510000
       26.610900       -9999.0000        3.6159800
       27.041300       -9999.0000        3.3608000
       27.478600       -9999.0000        3.1236200
       27.923100       -9999.0000        2.9031800
       28.374700       -9999.0000        2.6983000
       28.833700       -9999.0000        2.5491500
       29.300000        5.4996200        2.4352300
       29.773900        5.2791300        2.3264000
       30.255500        5.0562200        2.2514800
       30.744900        4.8457900        2.1820100
       31.242100        4.6375400        2.1141000
       31.747500        4.4235100        2.0463600
       32.260900        4.1995100        1.9807900
       32.782700        3.9628700        1.9215900
       33.313000        3.7123200        1.8656800
       33.851800        3.4312300        1.8148500
       34.399300        3.1442100        1.8204200
       34.955700        2.8652100        1.8260000
       35.521100        2.5734300        1.8375600
       36.095600        2.2810400        1.8715700
       36.679400        1.9841800        1.9062100
       37.272700        1.6637900        1.9415000
       37.875500        1.3323400        2.0261600
       38.488200        1.0072500        2.1151400
       39.110700       0.67421200        2.2080400
       39.743200       0.32201000        2.3181000
       40.386100     -0.034092700        2.4433200
       41.039300      -0.40702500        2.5753100
       41.703100      -0.81316100        2.7266700
       42.377600       -1.2284500        2.9069500
       43.063000       -1.6673500        3.0991500
       43.759500       -2.1648800        3.3055000
       44.467300       -2.6864100        3.6394100
       45.186500       -3.1894400        4.0070400
       45.917400       -3.6948100        4.4118200
       46.660000       -4.2264200        4.8800200
       47.414700       -4.7356400        5.4262400
       48.181600       -5.2242900        6.0335900
       48.960900       -5.6795800        6.7089100
       49.752800       -6.0979000        7.4062400
       50.557600       -6.5206200        8.1560900
       51.375300       -6.9277700        8.9818700
       52.206200       -7.3062900        9.8912600
       53.050600       -7.6453200        10.895100
       53.908700       -7.9064700        12.029600
       54.780600       -8.0174700        13.282200
       55.666700       -7.8266600        14.665300
       56.567000       -7.4754600        15.629800
       57.482000       -7.2451600        16.589100
       58.411700       -7.0119700        17.607200
       59.356400       -6.7040000        18.687900
       60.316500       -6.2637900        19.716000
       61.292100       -5.8456800        20.709300
       62.283400       -5.3850800        21.752600
       63.290800       -4.8282400        22.848500
       64.314500       -4.0626200        23.980800
       65.354700       -3.2406900        24.817000
       66.411800       -2.4514500        25.682300
       67.485900       -1.6143100        26.577800
       68.577500      -0.60028100        27.474300
       69.686700       0.42118100        28.081700
       70.813800        1.3814900        28.702600
       71.959100        2.3390300        29.337200
       73.123000        3.3452100        29.985800
       74.305700        4.4667700        30.604200
       75.507600        5.5952400        31.154100
       76.728900        6.7693500        31.713800
       77.969900        8.0605900        32.283600
       79.231000        9.6132400        32.863600
       80.512500        11.454800        32.916100
       81.814700        12.927700        32.648500
       83.138000        14.229900        32.383100
       84.482700        15.448800        32.115500
       85.849100        16.620900        31.848600
       87.237700        17.777400        31.583900
       88.648700        18.964000        31.321400
       90.082500        20.313200        31.061100
       91.539500        21.674800        30.348100
       93.020100        22.754900        29.546900
       94.524600        23.689600        28.766900
       96.053500        24.535200        28.007500
       97.607100        25.322100        27.268100
       99.185800        26.080800        26.548300
       100.79000        26.883000        25.820000
       102.42000        27.585100        24.912700
       104.07700        28.171100        24.037200
       105.76000        28.685000        23.192600
       107.47100        29.164500        22.377600
       109.20900        29.650300        21.591200
       110.97500        30.279200        20.733300
       112.77000        30.673700        19.557400
       114.59400        30.853700        18.448200
       116.44800        30.884600        17.402000
       118.33100        30.786900        16.415100
       120.24500        30.464600        15.484100
       122.19000        30.157800        14.984200
       124.16600        29.995700        14.511300
       126.17500        29.888000        14.053300
       128.21500        29.809200        13.609700
       130.28900        29.750500        13.180200
       132.39700        29.709100        12.764200
       134.53800        29.687400        12.361300
       136.71400        29.696600        11.971200
       138.92500        29.790000        11.593300
       141.17200        29.854200        11.006200
       143.45600        29.826000        10.441500
       145.77600        29.740900        9.9058600
       148.13400        29.632800        9.3976700
       150.53000        29.520200        8.9155300
       152.96400        29.453100        8.4581400
       155.43900        29.361700        7.8322600
       157.95300        29.143100        7.2149800
       160.50700        28.833500        6.6463500
       163.10300        28.466600        6.1225100
       165.74200        28.017700        5.6811100
       168.42200        27.600800        5.3310500
       171.14600        27.205800        5.0025800
       173.91500        26.807000        4.6943300
       176.72700        26.400200        4.4027700
       179.58600        25.975800        4.1274900
       182.49100        25.522600        3.8694200
       185.44200        24.991300        3.6703200
       188.44200        24.525800        3.5862100
       191.48900        24.099500        3.5040300
       194.58700        23.686000        3.4237300
       197.73400        23.260400        3.3489100
       200.93200        22.847900        3.3207500
       204.18200        22.448800        3.2928200
       207.48500        22.046700        3.2651300
       210.84000        21.625900        3.2609300
       214.25100        21.224200        3.2845400
       217.71600        20.828000        3.3083300
       221.23700        20.423400        3.3322900
       224.81600        19.983000        3.3739700
       228.45200        19.561100        3.4617700
       232.14700        19.147200        3.5518600
       235.90200        18.727900        3.6442900
       239.71700        18.286500        3.7427100
       243.59500        17.839800        3.8741100
       247.53500        17.386000        4.0101300
       251.53800        16.913800        4.1509200
       255.60700        16.408800        4.2966600
       259.74100        15.831400        4.4475100
       263.94200        15.135300        4.7072200
       268.21100        14.504100        5.1272400
       272.54900        13.915800        5.5847600
       276.95700        13.340200        6.0830800
       281.43700        12.775900        6.6359100
       285.98900        12.216800        7.2401700
       290.61500        11.629000        7.8994800
       295.31500        11.069900        8.7686500
       300.09200        10.632600        9.7529600
       304.94500        10.421000        10.847700
       309.87800        10.456300        11.792100
       314.89000        10.412900        12.571900
       319.98300        10.348700        13.403200
       325.15800        10.399100        14.261700
       330.41800        10.435300        15.026500
       335.76200        10.445400        15.832200
       341.19200        10.481300        16.681200
       346.71100        10.577700        17.568300
       352.31900        10.723500        18.474800
       358.01700        10.946800        19.428200
       363.80800        11.380900        20.370800
       369.69200        11.776700        21.093500
       375.67200        12.138900        21.841800
       381.74800        12.516500        22.616600
       387.92200        12.945800        23.418900
       394.19700        13.582800        24.166500
       400.57300        14.146900        24.723600
       407.05200        14.624900        25.293600
       413.63500        15.098600        25.876700
       420.32600        15.581700        26.473200
       427.12400        16.087000        27.083400
       434.03200        16.700700        27.675800
       441.05200        17.281400        28.165700
       448.18600        17.818700        28.664400
       455.43500        18.356600        29.171800
       462.80200        18.902400        29.688300
       470.28700        19.463100        30.213800
       477.89400        20.044800        30.748700
       485.62300        20.654300        31.292600
       493.47800        21.299700        31.846200
       501.45900        21.993600        32.409600
       509.57000        22.757600        32.983000
       517.81200        23.668300        33.566500
       526.18700        24.691800        33.886500
       534.69800        25.608100        34.071400
       543.34600        26.421600        34.257300
       552.13400        27.210000        34.442600
       561.06500        27.985600        34.627900
       570.13900        28.761000        34.814100
       579.36100        29.552300        35.001400
       588.73200        30.416600        35.165500
       598.25400        31.214800        35.211300
       607.93000        31.988500        35.293400
       617.76300        32.777800        35.374400
       627.75500        33.609900        35.448700
       637.90800        34.477200        35.448000
       648.22600        35.341800        35.345800
       658.71100        36.119100        35.177100
       669.36500        36.844200        35.009400
       680.19100        37.540700        34.831000
       691.19300        38.212900        34.642600
       702.37200        38.870000        34.435800
       713.73300        39.498600        34.179200
       725.27700        40.050200        33.889600
       737.00800        40.532600        33.602400
       748.92800        40.943200        33.317400
       761.04200        41.244800        33.043300
       773.35100        41.380100        32.861900
       785.85900        41.437700        32.972500
       798.57000        41.732600        33.327800
       811.48600        42.214300        33.686900
       824.61100        42.844300        34.049700
       837.94900        43.680500        34.416500
       851.50200        44.713400        34.566500
       865.27400        45.831300        34.441600
       879.26900        46.737300        34.072700
       893.49100        47.504200        33.707700
       907.94300        48.200500        33.346600
       922.62800        48.857800        32.989300
       937.55100        49.474400        32.607300
       952.71500        50.050500        32.222000
       968.12400        50.586100        31.834600
       983.78300        51.090100        31.452200
       999.69500        51.568500        31.072200
       1015.8600        52.027000        30.694600
       1032.2900        52.439500        30.300800
       1048.9900        52.810700        29.943000
       1065.9600        53.185900        29.623200
       1083.2000        53.563200        29.306400
       1100.7200        53.935900        28.992500
       1118.5200        54.302700        28.681600
       1136.6100        54.663500        28.373500
       1155.0000        55.019100        28.068500
       1173.6800        55.371000        27.766500
       1192.6600        55.720500        27.466800
       1211.9500        56.071100        27.170200
       1231.5500        56.433600        26.876500
       1251.4700        56.807800        26.555500
       1271.7200        57.182900        26.203800
       1292.2900        57.515800        25.814400
       1313.1900        57.814500        25.430300
       1334.4300        58.091100        25.051500
       1356.0100        58.350000        24.677700
       1377.9400        58.593600        24.309100
       1400.2300        58.824200        23.945500
       1422.8800        59.043700        23.586800
       1445.8900        59.254600        23.232900
       1469.2800        59.461400        22.879600
       1493.0400        59.665500        22.524800
       1517.1900        59.851400        22.147800
       1541.7300        60.013500        21.773100
       1566.6700        60.155600        21.404300
       1592.0100        60.282000        21.041000
       1617.7600        60.394400        20.683400
       1643.9200        60.493500        20.331200
       1670.5100        60.580200        19.984500
       1697.5300        60.655200        19.643400
       1724.9900        60.727700        19.307700
       1752.8900        60.787100        18.960500
       1781.2400        60.826000        18.613800
       1810.0500        60.845500        18.268900
       1839.3200        60.845300        17.929700
       1869.0700        60.827700        17.596300
       1899.3000        60.793100        17.268800
       1930.0200        60.741300        16.946900
       1961.2400        60.671800        16.630900
       1992.9600        60.581500        16.320700
       2025.2000        60.485800        16.024800
       2057.9500        60.372100        15.713800
       2091.2400        60.228000        15.405300
       2125.0600        60.057200        15.100300
       2159.4300        59.857400        14.798500
       2194.3600        59.626500        14.500300
       2229.8500        59.360300        14.204900
       2265.9200        59.054500        13.913300
       2302.5700        58.704000        13.625500
       2339.8100        58.302200        13.341200
       2377.6600        57.840600        13.060500
       2416.1100        57.306500        12.782200
       2455.1900        56.683800        12.508100
       2494.9000        55.951700        12.237900
       2535.2600        55.077700        11.970600
       2576.2600        54.012600        11.707100
       2617.9300        52.675100        11.447000
       2660.2700        50.914400        11.190600
       2703.3000        48.394400        10.937500
       2747.0300        44.047200        10.687900
       2786.6000        11.624700        10.470100
       2786.8000        11.629600        27.382800
       2791.4600        32.175300        27.309100
       2836.6100        43.612900        26.611000
       2882.4900        43.876200        25.934200
       2908.6000        24.981800        25.561400
       2908.8000        24.994600        37.114800
       2929.1100        45.596300        36.725500
       2976.4800        51.862600        35.843200
       3024.6300        55.229700        34.982400
       3073.5500        57.611700        34.145000
       3123.2600        59.435700        33.327900
       3173.7800        60.871500        32.531100
       3225.1100        61.995200        31.754000
       3277.2700        62.827700        30.997800
       3330.2800        63.315500        30.260000
       3384.1500        63.322600        29.541400
       3425.9000        55.526200        29.003700
       3426.1000        55.539300        33.650900
       3438.8800        62.399000        33.464600
       3494.5000        65.670400        32.673100
       3551.0200        67.284000        31.900400
       3608.4600        68.476500        31.147200
       3666.8200        69.440500        30.413800
       3726.1300        70.242500        29.696700
       3786.4000        70.910500        28.998500
       3847.6400        71.451500        28.317600
       3909.8700        71.840700        27.654000
       3973.1100        72.185900        27.006100
       4007.9000        69.697600        26.660400
       4008.1000        69.706200        28.189100
       4037.3800        72.347900        27.887500
       4102.6800        73.346300        27.233800
       4169.0300        73.956000        26.597000
       4236.4600        74.359500        25.976100
       4304.9800        74.263000        25.369300
       4316.9000        72.802400        25.266200
