;  Atomic scattering factors for Ba.
;   
;  Concatenation of data from CXRO <http://www-cxro.lbl.gov>
;  and LLNL <http://www-phys.llnl.gov/V_Div/scattering/asf.html>
;  
;  E (eV) f1 f2
;---------------
       10.000000       -9999.0000       0.10258200
       10.161700       -9999.0000       0.10760500
       10.326100       -9999.0000       0.11287400
       10.493100       -9999.0000       0.11840100
       10.662800       -9999.0000       0.12419800
       10.835300       -9999.0000       0.13028000
       11.010600       -9999.0000       0.13665900
       11.188600       -9999.0000       0.14335000
       11.369600       -9999.0000       0.15036900
       11.553500       -9999.0000       0.15773200
       11.740400       -9999.0000       0.16545500
       11.930300       -9999.0000       0.17355700
       12.123200       -9999.0000       0.18333800
       12.319300       -9999.0000       0.19428800
       12.518600       -9999.0000       0.20589100
       12.721000       -9999.0000       0.21818700
       12.926800       -9999.0000       0.23121800
       13.135900       -9999.0000       0.24761500
       13.348300       -9999.0000       0.26521800
       13.564200       -9999.0000       0.28407200
       13.783600       -9999.0000       0.30426700
       14.006600       -9999.0000       0.36267700
       14.233100       -9999.0000       0.42000400
       14.463300       -9999.0000       0.47409200
       14.697300       -9999.0000       0.53373800
       14.935000       -9999.0000       0.59955300
       15.176500       -9999.0000       0.66692700
       15.422000       -9999.0000       0.73096000
       15.671400       -9999.0000       0.69314400
       15.924900       -9999.0000       0.65467600
       16.182500       -9999.0000       0.62753200
       16.444200       -9999.0000       0.74340400
       16.710200       -9999.0000        1.5105500
       16.980500       -9999.0000        2.3163200
       17.255100       -9999.0000        5.8272000
       17.534200       -9999.0000        9.1875800
       17.817800       -9999.0000        11.065100
       18.106000       -9999.0000        12.170600
       18.398900       -9999.0000        13.386600
       18.696400       -9999.0000        16.271500
       18.998800       -9999.0000        20.831100
       19.306100       -9999.0000        25.539100
       19.618400       -9999.0000        26.176300
       19.935700       -9999.0000        26.829400
       20.258200       -9999.0000        26.972500
       20.585800       -9999.0000        26.697200
       20.918800       -9999.0000        26.126900
       21.257100       -9999.0000        24.855600
       21.600900       -9999.0000        23.646100
       21.950300       -9999.0000        22.495500
       22.305300       -9999.0000        21.400800
       22.666100       -9999.0000        20.359400
       23.032700       -9999.0000        19.368700
       23.405300       -9999.0000        18.426200
       23.783800       -9999.0000        17.529600
       24.168500       -9999.0000        16.662500
       24.559400       -9999.0000        15.836500
       24.956600       -9999.0000        15.051500
       25.360300       -9999.0000        14.305400
       25.770500       -9999.0000        13.596300
       26.187300       -9999.0000        12.922400
       26.610900       -9999.0000        12.281800
       27.041300       -9999.0000        11.673000
       27.478600       -9999.0000        11.094400
       27.923100       -9999.0000        10.544400
       28.374700       -9999.0000        10.001800
       28.833700       -9999.0000        9.4795300
       29.300000        16.447100        8.9844900
       29.773900        16.411800        8.5152900
       30.255500        16.361000        8.0705900
       30.744900        16.297200        7.6491400
       31.242100        16.222300        7.2496700
       31.747500        16.138500        6.8710800
       32.260900        16.047300        6.5122500
       32.782700        15.950700        6.1721600
       33.313000        15.851100        5.8498400
       33.851800        15.752500        5.5443500
       34.399300        15.664200        5.2548100
       34.955700        15.595200        4.9330400
       35.521100        15.473300        4.6015300
       36.095600        15.326000        4.2922900
       36.679400        15.163200        4.0038400
       37.272700        14.989200        3.7347700
       37.875500        14.806300        3.4837900
       38.488200        14.616200        3.2496700
       39.110700        14.419200        3.0312900
       39.743200        14.212400        2.8275800
       40.386100        13.986700        2.6507800
       41.039300        13.778800        2.5067100
       41.703100        13.582000        2.3704800
       42.377600        13.389300        2.2416500
       43.063000        13.198800        2.1198200
       43.759500        13.009400        2.0046100
       44.467300        12.820100        1.8956600
       45.186500        12.630400        1.7926400
       45.917400        12.439500        1.6952100
       46.660000        12.246800        1.6030800
       47.414700        12.051500        1.5159600
       48.181600        11.852600        1.4335700
       48.960900        11.648100        1.3556500
       49.752800        11.432800        1.2851700
       50.557600        11.218100        1.2330900
       51.375300        11.002500        1.1831100
       52.206200        10.775000        1.1382200
       53.050600        10.551100        1.1199600
       53.908700        10.332800        1.1024800
       54.780600        10.117300        1.0925900
       55.666700        9.9034300        1.0827900
       56.567000        9.6875100        1.0730700
       57.482000        9.4668200        1.0634400
       58.411700        9.2375200        1.0546700
       59.356400        9.0020200        1.0529900
       60.316500        8.7580300        1.0513100
       61.292100        8.4945200        1.0580700
       62.283400        8.2336400        1.0811100
       63.290800        7.9711800        1.1046500
       64.314500        7.7008300        1.1287100
       65.354700        7.4188400        1.1532900
       66.411800        7.1197600        1.1842300
       67.485900        6.8130400        1.2225200
       68.577500        6.4932400        1.2620500
       69.686700        6.1546900        1.3028600
       70.813800        5.7950200        1.3538500
       71.959100        5.4199300        1.4108900
       73.123000        5.0229100        1.4703300
       74.305700        4.5996500        1.5354000
       75.507600        4.1469500        1.6040900
       76.728900        3.6552200        1.6758500
       77.969900        3.1202100        1.7677100
       79.231000        2.5519900        1.8720500
       80.512500        1.9411200        1.9800400
       81.814700        1.2688400        2.0882200
       83.138000       0.52341300        2.2023200
       84.482700      -0.30353300        2.3226500
       85.849100       -1.2565100        2.4043600
       87.237700       -2.4270300        2.4771400
       88.648700       -3.9115000        2.6201900
       90.082500       -6.3009200        2.6798300
       91.539500       -8.6849100        4.9538700
       93.020100       -7.4412600        9.1577900
       94.524600       -7.7841700        3.4625200
       96.053500       -12.857200        4.2723300
       97.607100       -18.342500        5.8170900
       99.185800       -25.301400        9.4653900
       100.79000       -32.329500        17.337800
       102.42000       -36.798800        35.084800
       104.07700       -31.133800        48.030700
       105.76000       -16.761800        57.260200
       107.47100       -4.9025300        58.132700
       109.20900        2.5863600        56.758200
       110.97500        7.6051600        54.901300
       112.77000        11.102900        54.048200
       114.59400        14.072600        56.867500
       116.44800        24.389100        59.231600
       118.33100        33.094900        54.939900
       120.24500        38.496200        49.125400
       122.19000        41.612100        43.206000
       124.16600        43.213200        38.252400
       126.17500        44.213600        33.958400
       128.21500        44.984100        30.146400
       130.28900        45.260800        26.196400
       132.39700        44.964800        22.713300
       134.53800        44.293400        19.597200
       136.71400        43.213700        16.995100
       138.92500        42.234200        15.015000
       141.17200        41.507300        13.186300
       143.45600        40.620800        11.356600
       145.77600        39.614500        9.7809200
       148.13400        38.581100        8.3990000
       150.53000        37.527800        7.2013900
       152.96400        36.478700        6.1745400
       155.43900        35.456300        5.2913300
       157.95300        34.444500        4.5232000
       160.50700        33.442800        3.8806400
       163.10300        32.440200        3.3255500
       165.74200        31.509500        3.0054200
       168.42200        30.667400        2.7161000
       171.14600        29.898200        2.4869100
       173.91500        29.173700        2.2787800
       176.72700        28.448500        2.1193300
       179.58600        27.778300        2.0156500
       182.49100        27.135600        1.9512600
       185.44200        26.516300        1.9317200
       188.44200        25.929400        1.9561800
       191.48900        25.405500        2.0534600
       194.58700        24.947000        2.1555900
       197.73400        24.531000        2.2589000
       200.93200        24.144100        2.3644200
       204.18200        23.781700        2.4748600
       207.48500        23.438800        2.5904700
       210.84000        23.106900        2.7121700
       214.25100        22.795300        2.8612000
       217.71600        22.508100        3.0184200
       221.23700        22.242400        3.1842800
       224.81600        21.997600        3.3592600
       228.45200        21.771300        3.5380700
       232.14700        21.560400        3.7251600
       235.90200        21.365400        3.9221400
       239.71700        21.188600        4.1295400
       243.59500        21.032300        4.3479000
       247.53500        20.906600        4.5745400
       251.53800        20.794400        4.7889000
       255.60700        20.695100        5.0133000
       259.74100        20.613700        5.2482200
       263.94200        20.557400        5.4941400
       268.21100        20.550600        5.7515900
       272.54900        20.580700        5.9596400
       276.95700        20.597700        6.1448900
       281.43700        20.621700        6.3359000
       285.98900        20.666100        6.5091200
       290.61500        20.704000        6.6681600
       295.31500        20.738500        6.8310900
       300.09200        20.780200        6.9979900
       304.94500        20.832800        7.1689800
       309.87800        20.900900        7.3441400
       314.89000        21.009600        7.5235800
       319.98300        21.134800        7.6477400
       325.15800        21.239900        7.7553700
       330.41800        21.340100        7.8645300
       335.76200        21.444100        7.9752300
       341.19200        21.557900        8.0874800
       346.71100        21.715900        8.2013200
       352.31900        21.875300        8.2366100
       358.01700        21.998400        8.2576600
       363.80800        22.104100        8.2787700
       369.69200        22.200100        8.2999200
       375.67200        22.290100        8.3211400
       381.74800        22.382500        8.3382700
       387.92200        22.464600        8.3454000
       394.19700        22.536300        8.3525400
       400.57300        22.602300        8.3596900
       407.05200        22.663400        8.3668500
       413.63500        22.720500        8.3740000
       420.32600        22.774300        8.3811700
       427.12400        22.825700        8.3883500
       434.03200        22.880200        8.3955200
       441.05200        22.935400        8.3901000
       448.18600        22.977300        8.3752400
       455.43500        23.009100        8.3604100
       462.80200        23.033300        8.3455900
       470.28700        23.050800        8.3308100
       477.89400        23.062000        8.3160600
       485.62300        23.067400        8.3013200
       493.47800        23.067600        8.2866200
       501.45900        23.063400        8.2719400
       509.57000        23.056200        8.2572800
       517.81200        23.047300        8.2426600
       526.18700        23.077900        8.2159800
       534.69800        23.072600        8.1216400
       543.34600        23.017800        8.0283800
       552.13400        22.935600        7.9361900
       561.06500        22.827700        7.8450600
       570.13900        22.694100        7.7549800
       579.36100        22.534000        7.6659300
       588.73200        22.345500        7.5779000
       598.25400        22.116100        7.4930700
       607.93000        21.861800        7.4281500
       617.76300        21.583900        7.3638000
       627.75500        21.272200        7.3000100
       637.90800        20.921200        7.2367600
       648.22600        20.523700        7.1740600
       658.71100        20.087100        7.1064900
       669.36500        19.570400        7.0158000
       680.19100        18.953500        6.9262600
       691.19300        18.224000        6.8378600
       702.37200        17.361600        6.7470500
       713.73300        16.300300        6.6421500
       725.27700        14.960700        6.5388800
       737.00800        13.214400        6.4372200
       748.92800        10.789800        6.3371400
       761.04200        6.9936600        6.2386200
       773.35100       -1.2394200        6.1416200
       780.10000       -36.046400        6.0897300
       780.30000       -36.038700        32.091900
       785.85900       -2.4817700        32.002400
       798.57000        7.5459400        31.801000
       811.48600        12.208600        31.600900
       824.61100        15.348700        31.402100
       837.94900        17.752800        31.204600
       851.50200        19.721000        31.008300
       865.27400        21.400900        30.813200
       879.26900        22.876500        30.619300
       893.49100        24.201600        30.426700
       907.94300        25.419600        30.235300
       922.62800        26.538600        30.014900
       937.55100        27.567400        29.793000
       952.71500        28.521800        29.572800
       968.12400        29.416400        29.354100
       983.78300        30.260300        29.137100
       999.69500        31.060700        28.921700
       1015.8600        31.823500        28.707900
       1032.2900        32.553700        28.495700
       1048.9900        33.255500        28.285000
       1065.9600        33.932800        28.075900
       1083.2000        34.592800        27.868300
       1100.7200        35.236400        27.653900
       1118.5200        35.855500        27.432100
       1136.6100        36.453500        27.212200
       1155.0000        37.034900        26.994000
       1173.6800        37.602300        26.777600
       1192.6600        38.158200        26.562900
       1211.9500        38.704800        26.349900
       1231.5500        39.244500        26.138600
       1251.4700        39.780300        25.929100
       1271.7200        40.315500        25.721100
       1292.2900        40.855200        25.514900
       1313.1900        41.407900        25.310300
       1334.4300        41.997200        25.107400
       1356.0100        42.660800        24.814000
       1377.9400        43.254400        24.396600
       1400.2300        43.746800        23.986200
       1422.8800        44.201500        23.582700
       1445.8900        44.625600        23.186000
       1469.2800        45.025200        22.796000
       1493.0400        45.404800        22.412500
       1517.1900        45.768300        22.035500
       1541.7300        46.120500        21.664800
       1566.6700        46.474200        21.300300
       1592.0100        46.820000        20.903200
       1617.7600        47.133100        20.494700
       1643.9200        47.413600        20.094100
       1670.5100        47.674300        19.701400
       1697.5300        47.917800        19.316400
       1724.9900        48.146100        18.938900
       1752.8900        48.360900        18.568700
       1781.2400        48.563600        18.205900
       1810.0500        48.755400        17.850000
       1839.3200        48.937200        17.501200
       1869.0700        49.114900        17.158000
       1899.3000        49.281400        16.813300
       1930.0200        49.434000        16.475400
       1961.2400        49.577800        16.144400
       1992.9600        49.710200        15.819900
       2025.2000        49.842900        15.510200
       2057.9500        49.970800        15.190200
       2091.2400        50.087300        14.875600
       2125.0600        50.194500        14.565800
       2159.4300        50.293700        14.261400
       2194.3600        50.385800        13.961800
       2229.8500        50.470700        13.666800
       2265.9200        50.548700        13.377000
       2302.5700        50.620200        13.091900
       2339.8100        50.685300        12.811700
       2377.6600        50.744500        12.536500
       2416.1100        50.797800        12.265600
       2455.1900        50.845100        11.999600
       2494.9000        50.887600        11.738700
       2535.2600        50.924600        11.481700
       2576.2600        50.956100        11.229500
       2617.9300        50.982500        10.981700
       2660.2700        51.004500        10.738800
       2703.3000        51.021400        10.499500
       2747.0300        51.033400        10.265000
       2791.4600        51.040700        10.034700
       2836.6100        51.044100        9.8089700
       2882.4900        51.042600        9.5861300
       2929.1100        51.036300        9.3683800
       2976.4800        51.025800        9.1543300
       3024.6300        51.010900        8.9442900
       3073.5500        50.991400        8.7380300
       3123.2600        50.967500        8.5356200
       3173.7800        50.939000        8.3369600
       3225.1100        50.906000        8.1420800
       3277.2700        50.868400        7.9507500
       3330.2800        50.825900        7.7629800
       3384.1500        50.778600        7.5787800
       3438.8800        50.726200        7.3980600
       3494.5000        50.668600        7.2206400
       3551.0200        50.605500        7.0466400
       3608.4600        50.536700        6.8759000
       3666.8200        50.461800        6.7083300
       3726.1300        50.380500        6.5440500
       3786.4000        50.292300        6.3828200
       3847.6400        50.196700        6.2246100
       3909.8700        50.093000        6.0694100
       3973.1100        49.980500        5.9171500
       4037.3800        49.858400        5.7678000
       4102.6800        49.725500        5.6213400
       4169.0300        49.580600        5.4775900
       4236.4600        49.422100        5.3365900
       4304.9800        49.248000        5.1983200
       4374.6200        49.055900        5.0626500
       4445.3700        48.842500        4.9295200
       4517.2700        48.603800        4.7990300
       4590.3300        48.334400        4.6710300
       4664.5800        48.026600        4.5452900
       4740.0300        47.669600        4.4221100
       4816.6900        47.247300        4.3012500
