;  Atomic scattering factors for Bi.
;   
;  Concatenation of data from CXRO <http://www-cxro.lbl.gov>
;  and LLNL <http://www-phys.llnl.gov/V_Div/scattering/asf.html>
;  
;  E (eV) f1 f2
;---------------
       10.000000       -9999.0000        5.5947500
       10.161700       -9999.0000        5.6358700
       10.326100       -9999.0000        5.6772900
       10.493100       -9999.0000        5.7190100
       10.662800       -9999.0000        5.7457400
       10.835300       -9999.0000        5.7564000
       11.010600       -9999.0000        5.7670700
       11.188600       -9999.0000        5.7777600
       11.369600       -9999.0000        5.7884700
       11.553500       -9999.0000        5.7834000
       11.740400       -9999.0000        5.7738700
       11.930300       -9999.0000        5.7643400
       12.123200       -9999.0000        5.7548400
       12.319300       -9999.0000        5.7453400
       12.518600       -9999.0000        5.7358600
       12.721000       -9999.0000        5.7240600
       12.926800       -9999.0000        5.6715300
       13.135900       -9999.0000        5.6194800
       13.348300       -9999.0000        5.5679200
       13.564200       -9999.0000        5.5168200
       13.783600       -9999.0000        5.4662000
       14.006600       -9999.0000        5.4106000
       14.233100       -9999.0000        5.2885000
       14.463300       -9999.0000        5.1691400
       14.697300       -9999.0000        5.0524800
       14.935000       -9999.0000        4.9384600
       15.176500       -9999.0000        4.8270000
       15.422000       -9999.0000        4.6870700
       15.671400       -9999.0000        4.5382900
       15.924900       -9999.0000        4.3942400
       16.182500       -9999.0000        4.2547500
       16.444200       -9999.0000        4.0712500
       16.710200       -9999.0000        3.8724100
       16.980500       -9999.0000        3.6832800
       17.255100       -9999.0000        3.5038800
       17.534200       -9999.0000        3.3336500
       17.817800       -9999.0000        3.1716700
       18.106000       -9999.0000        3.0175800
       18.398900       -9999.0000        2.8632400
       18.696400       -9999.0000        2.7158200
       18.998800       -9999.0000        2.5759900
       19.306100       -9999.0000        2.4380500
       19.618400       -9999.0000        2.2890900
       19.935700       -9999.0000        2.1492300
       20.258200       -9999.0000        2.0204200
       20.585800       -9999.0000        1.9004700
       20.918800       -9999.0000        1.8076900
       21.257100       -9999.0000        1.7597500
       21.600900       -9999.0000        1.7130900
       21.950300       -9999.0000        1.6676900
       22.305300       -9999.0000        1.6621700
       22.666100       -9999.0000        1.6566700
       23.032700       -9999.0000        1.6686900
       23.405300       -9999.0000        1.7094100
       23.783800       -9999.0000        1.8360300
       24.168500       -9999.0000        3.1767900
       24.559400       -9999.0000        5.2604400
       24.956600       -9999.0000        5.6500100
       25.360300       -9999.0000        6.0101400
       25.770500       -9999.0000        6.2078100
       26.187300       -9999.0000        6.4120000
       26.610900       -9999.0000        6.5961300
       27.041300       -9999.0000        6.6692000
       27.478600       -9999.0000        6.7430900
       27.923100       -9999.0000        6.7115600
       28.374700       -9999.0000        6.4819400
       28.833700       -9999.0000        6.2213100
       29.300000        1.1081200        5.9538300
       29.773900        1.1994000        5.6130700
       30.255500       0.99776400        5.1116000
       30.744900       0.64363000        4.9939600
       31.242100       0.38594300        4.9225500
       31.747500       0.13639300        4.8501100
       32.260900      -0.15970600        4.7592200
       32.782700      -0.57340300        4.7468600
       33.313000      -0.93882800        4.8490000
       33.851800       -1.3083400        4.9632300
       34.399300       -1.6715300        5.1470200
       34.955700       -2.0413300        5.3376100
       35.521100       -2.4503200        5.6105300
       36.095600       -2.8087900        5.9396200
       36.679400       -3.1589300        6.2879900
       37.272700       -3.5402600        6.7199700
       37.875500       -3.8468600        7.2353700
       38.488200       -4.0923800        7.7903100
       39.110700       -4.2581000        8.3845300
       39.743200       -4.3853200        8.9213400
       40.386100       -4.5043600        9.4925100
       41.039300       -4.5831300        10.100300
       41.703100       -4.5832100        10.746900
       42.377600       -4.5067200        11.298200
       43.063000       -4.4720600        11.830400
       43.759500       -4.4365800        12.387700
       44.467300       -4.3782400        12.971300
       45.186500       -4.2668900        13.558800
       45.917400       -4.1560300        14.122200
       46.660000       -4.0367800        14.709100
       47.414700       -3.8940800        15.320300
       48.181600       -3.7086500        15.957000
       48.960900       -3.4431600        16.620100
       49.752800       -3.1463700        17.172700
       50.557600       -2.8707200        17.738300
       51.375300       -2.5832000        18.322400
       52.206200       -2.2670300        18.925800
       53.050600       -1.8930800        19.549100
       53.908700       -1.4354800        20.105900
       54.780600       -1.0166200        20.622600
       55.666700      -0.60328900        21.152600
       56.567000      -0.16742900        21.696100
       57.482000       0.31413100        22.250800
       58.411700       0.81345200        22.758500
       59.356400        1.3178900        23.277700
       60.316500        1.8463000        23.808700
       61.292100        2.4128200        24.351900
       62.283400        3.0404900        24.879600
       63.290800        3.6787900        25.387500
       64.314500        4.3498400        25.905700
       65.354700        5.0709700        26.434500
       66.411800        5.8728000        26.974100
       67.485900        6.8390400        27.524700
       68.577500        7.8375700        27.789300
       69.686700        8.7702200        28.049700
       70.813800        9.7168500        28.312400
       71.959100        10.750300        28.577700
       73.123000        11.825700        28.658000
       74.305700        12.841300        28.701600
       75.507600        13.874800        28.745200
       76.728900        15.029100        28.789000
       77.969900        16.272100        28.506500
       79.231000        17.292300        28.089100
       80.512500        18.207500        27.677800
       81.814700        19.062700        27.248600
       83.138000        19.856600        26.817200
       84.482700        20.609900        26.392500
       85.849100        21.344800        25.974600
       87.237700        22.074200        25.531400
       88.648700        22.766000        25.077400
       90.082500        23.439800        24.631400
       91.539500        24.118300        24.193400
       93.020100        24.828800        23.763100
       94.524600        25.662200        23.340500
       96.053500        26.613400        22.548800
       97.607100        27.274300        21.610100
       99.185800        27.744600        20.710700
       100.79000        28.123300        19.848600
       102.42000        28.434100        19.022400
       104.07700        28.695700        18.230600
       105.76000        28.927600        17.471700
       107.47100        29.174900        16.744400
       109.20900        29.395300        15.886600
       110.97500        29.490200        15.037000
       112.77000        29.497800        14.232800
       114.59400        29.453900        13.471600
       116.44800        29.371700        12.751100
       118.33100        29.268800        12.069200
       120.24500        29.127100        11.378000
       122.19000        28.936300        10.724900
       124.16600        28.706800        10.109200
       126.17500        28.445900        9.5288300
       128.21500        28.155000        8.9817900
       130.28900        27.831000        8.4661700
       132.39700        27.461300        7.9801600
       134.53800        26.980400        7.5863500
       136.71400        26.596800        7.3593500
       138.92500        26.276400        7.1391300
       141.17200        25.989900        6.9255100
       143.45600        25.725200        6.7182800
       145.77600        25.479800        6.5172500
       148.13400        25.266300        6.3222500
       150.53000        25.055600        6.0635800
       152.96400        24.809000        5.8034600
       155.43900        24.535400        5.5545100
       157.95300        24.244600        5.3162400
       160.50700        23.936500        5.0882900
       163.10300        23.610600        4.8712700
       165.74200        23.264100        4.6635100
       168.42200        22.888800        4.4646000
       171.14600        22.438200        4.2808800
       173.91500        21.997100        4.2203600
       176.72700        21.579200        4.1607000
       179.58600        21.138500        4.1383600
       182.49100        20.735100        4.1612900
       185.44200        20.345800        4.1843500
       188.44200        19.936200        4.2178200
       191.48900        19.537800        4.2834900
       194.58700        19.128200        4.3502000
       197.73400        18.720000        4.4665300
       200.93200        18.318500        4.5878600
       204.18200        17.884300        4.7222400
       207.48500        17.466800        4.9371800
       210.84000        17.071300        5.1618900
       214.25100        16.674300        5.4021000
       217.71600        16.288900        5.6731900
       221.23700        15.909700        5.9578800
       224.81600        15.514900        6.2568600
       228.45200        15.085400        6.6364600
       232.14700        14.715900        7.0937500
       235.90200        14.421800        7.5617400
       239.71700        14.142500        8.0306600
       243.59500        13.880200        8.5286800
       247.53500        13.652400        9.0575600
       251.53800        13.510100        9.6192600
       255.60700        13.384200        10.087900
       259.74100        13.234300        10.573700
       263.94200        13.086100        11.083000
       268.21100        12.948400        11.616800
       272.54900        12.828200        12.176300
       276.95700        12.732100        12.762800
       281.43700        12.680100        13.368000
       285.98900        12.640400        13.968900
       290.61500        12.619700        14.596800
       295.31500        12.628400        15.253000
       300.09200        12.679100        15.938600
       304.94500        12.789700        16.655000
       309.87800        13.025500        17.403700
       314.89000        13.308400        17.967700
       319.98300        13.551000        18.518000
       325.15800        13.772000        19.085100
       330.41800        14.008300        19.669600
       335.76200        14.275000        20.272000
       341.19200        14.611500        20.892800
       346.71100        14.989700        21.410500
       352.31900        15.342100        21.905700
       358.01700        15.680300        22.412400
       363.80800        16.034500        22.930800
       369.69200        16.435300        23.461200
       375.67200        16.898600        23.935900
       381.74800        17.317900        24.339600
       387.92200        17.711400        24.750100
       394.19700        18.097300        25.167500
       400.57300        18.482600        25.591900
       407.05200        18.863000        26.023500
       413.63500        19.256300        26.483300
       420.32600        19.672900        26.952000
       427.12400        20.112800        27.429000
       434.03200        20.580000        27.914500
       441.05200        21.080900        28.408500
       448.18600        21.661900        28.911300
       455.43500        22.281600        29.319400
       462.80200        22.870000        29.692700
       470.28700        23.453500        30.070700
       477.89400        24.048500        30.453500
       485.62300        24.666300        30.841200
       493.47800        25.321100        31.233800
       501.45900        26.063900        31.618100
       509.57000        26.798500        31.877800
       517.81200        27.517400        32.139700
       526.18700        28.246000        32.403700
       534.69800        29.005000        32.669900
       543.34600        29.915300        32.938300
       552.13400        30.834100        32.952300
       561.06500        31.637300        32.911800
       570.13900        32.409500        32.864200
       579.36100        33.135300        32.763600
       588.73200        33.817300        32.648500
       598.25400        34.457200        32.524200
       607.93000        35.064700        32.398300
       617.76300        35.647700        32.274400
       627.75500        36.219700        32.150300
       637.90800        36.777700        32.005900
       648.22600        37.310300        31.836300
       658.71100        37.793700        31.650600
       669.36500        38.232800        31.466200
       680.19100        38.622700        31.276400
       691.19300        38.931600        31.088900
       702.37200        39.079000        30.952800
       713.73300        39.162900        31.093200
       725.27700        39.452200        31.427700
       737.00800        39.895900        31.766000
       748.92800        40.460800        32.107800
       761.04200        41.175100        32.444700
       773.35100        42.098900        32.693800
       785.85900        43.142400        32.648500
       798.57000        43.990500        32.359800
       811.48600        44.708700        32.073500
       824.61100        45.362300        31.789900
       837.94900        45.978400        31.508800
       851.50200        46.566800        31.212400
       865.27400        47.124700        30.897300
       879.26900        47.631900        30.566400
       893.49100        48.093800        30.239100
       907.94300        48.509500        29.915300
       922.62800        48.836400        29.594900
       937.55100        49.154000        29.432900
       952.71500        49.508700        29.313800
       968.12400        49.937300        29.232100
       983.78300        50.432500        29.150800
       999.69500        51.005800        29.040900
       1015.8600        51.703700        28.900600
       1032.2900        52.336900        28.466900
       1048.9900        52.862800        28.036400
       1065.9600        53.316800        27.611400
       1083.2000        53.729400        27.192500
       1100.7200        54.109300        26.779500
       1118.5200        54.461900        26.372300
       1136.6100        54.790600        25.970900
       1155.0000        55.098300        25.575600
       1173.6800        55.387800        25.186200
       1192.6600        55.659900        24.801700
       1211.9500        55.915900        24.422800
       1231.5500        56.157000        24.049400
       1251.4700        56.383900        23.681200
       1271.7200        56.597600        23.318500
       1292.2900        56.799300        22.961200
       1313.1900        56.989100        22.608500
       1334.4300        57.167400        22.261000
       1356.0100        57.335400        21.918700
       1377.9400        57.493100        21.580600
       1400.2300        57.641300        21.247400
       1422.8800        57.780900        20.919200
       1445.8900        57.913800        20.595500
       1469.2800        58.043400        20.272600
       1493.0400        58.170700        19.948500
       1517.1900        58.281100        19.604800
       1541.7300        58.369500        19.263400
       1566.6700        58.439200        18.927700
       1592.0100        58.493600        18.596700
       1617.7600        58.533100        18.271100
       1643.9200        58.558900        17.951100
       1670.5100        58.571600        17.636300
       1697.5300        58.571400        17.326500
       1724.9900        58.565200        17.021400
       1752.8900        58.543900        16.707400
       1781.2400        58.500900        16.393900
       1810.0500        58.435700        16.081900
       1839.3200        58.347700        15.775800
       1869.0700        58.238700        15.475400
       1899.3000        58.108200        15.180500
       1930.0200        57.954800        14.890600
       1961.2400        57.776900        14.605800
       1992.9600        57.569500        14.325800
       2025.2000        57.345000        14.059900
       2057.9500        57.089800        13.780000
       2091.2400        56.790700        13.503500
       2125.0600        56.447200        13.230100
       2159.4300        56.053500        12.960100
       2194.3600        55.600100        12.692100
       2229.8500        55.076200        12.428700
       2265.9200        54.467800        12.168300
       2302.5700        53.752800        11.910600
       2339.8100        52.902000        11.656800
       2377.6600        51.868900        11.405500
       2416.1100        50.579400        11.158300
       2455.1900        48.899100        10.914100
       2494.9000        46.539500        10.673200
       2535.2600        42.648800        10.435400
       2576.2600        28.118900        10.201800
       2579.5000        9.1391800        10.183800
       2579.7000        9.1424600        27.183900
       2617.9300        40.336300        26.572500
       2660.2700        41.467000        25.921300
       2687.5000        23.224800        25.516400
       2687.7000        23.248900        37.019500
       2703.3000        42.281200        36.698200
       2747.0300        49.114300        35.822000
       2791.4600        52.633900        34.967600
       2836.6100        55.105100        34.133500
       2882.4900        56.992800        33.320100
       2929.1100        58.481800        32.527600
       2976.4800        59.657700        31.754900
       3024.6300        60.549000        31.001200
       3073.5500        61.124100        30.266800
       3123.2600        61.182400        29.549600
       3173.7800        57.880300        28.850100
       3176.8000        52.762400        28.809200
       3177.0000        52.766900        33.535000
       3225.1100        62.894500        32.789700
       3277.2700        64.749100        32.012400
       3330.2800        66.039700        31.254700
       3384.1500        67.059900        30.516100
       3438.8800        67.899100        29.795100
       3494.5000        68.593200        29.092000
       3551.0200        69.150000        28.407300
       3608.4600        69.541800        27.740300
       3666.8200        69.569500        27.088600
       3696.2000        66.935900        26.770300
       3696.4000        66.937900        28.375000
       3726.1300        70.111000        28.045300
       3786.4000        71.132400        27.396600
       3847.6400        71.777300        26.764800
       3909.8700        72.233300        26.147400
       3973.1100        72.390200        25.545100
       3999.0000        70.876000        25.305300
       3999.2000        70.877400        26.270200
       4037.3800        72.981700        25.935000
       4102.6800        73.729000        25.378700
       4169.0300        74.292700        24.831200
       4236.4600        74.777200        24.290700
