;  Atomic scattering factors for Br.
;   
;  Concatenation of data from CXRO <http://www-cxro.lbl.gov>
;  and LLNL <http://www-phys.llnl.gov/V_Div/scattering/asf.html>
;  
;  E (eV) f1 f2
;---------------
       10.000000       -9999.0000        5.1619900
       10.161700       -9999.0000        5.3185500
       10.326100       -9999.0000        5.4798600
       10.493100       -9999.0000        5.6460600
       10.662800       -9999.0000        5.8173000
       10.835300       -9999.0000        5.9937300
       11.010600       -9999.0000        6.1755200
       11.188600       -9999.0000        6.3628100
       11.369600       -9999.0000        6.5558000
       11.553500       -9999.0000        6.7546300
       11.740400       -9999.0000        6.9594900
       11.930300       -9999.0000        7.1705700
       12.123200       -9999.0000        7.3880400
       12.319300       -9999.0000        7.5834300
       12.518600       -9999.0000        7.7746900
       12.721000       -9999.0000        7.9707900
       12.926800       -9999.0000        8.1580500
       13.135900       -9999.0000        8.3365600
       13.348300       -9999.0000        8.5189900
       13.564200       -9999.0000        8.7054000
       13.783600       -9999.0000        8.8569500
       14.006600       -9999.0000        9.0080600
       14.233100       -9999.0000        9.1617400
       14.463300       -9999.0000        9.3180500
       14.697300       -9999.0000        9.4770200
       14.935000       -9999.0000        9.5458200
       15.176500       -9999.0000        9.6001700
       15.422000       -9999.0000        9.6548300
       15.671400       -9999.0000        9.7098100
       15.924900       -9999.0000        9.7650800
       16.182500       -9999.0000        9.8206800
       16.444200       -9999.0000        9.8765900
       16.710200       -9999.0000        9.9328300
       16.980500       -9999.0000        9.9893700
       17.255100       -9999.0000        9.9925800
       17.534200       -9999.0000        9.9775100
       17.817800       -9999.0000        9.9624500
       18.106000       -9999.0000        9.9474300
       18.398900       -9999.0000        9.9324300
       18.696400       -9999.0000        9.9174500
       18.998800       -9999.0000        9.9024900
       19.306100       -9999.0000        9.8261600
       19.618400       -9999.0000        9.7284600
       19.935700       -9999.0000        9.6317500
       20.258200       -9999.0000        9.5359900
       20.585800       -9999.0000        9.4411900
       20.918800       -9999.0000        9.3443400
       21.257100       -9999.0000        9.1391800
       21.600900       -9999.0000        8.9385100
       21.950300       -9999.0000        8.7422500
       22.305300       -9999.0000        8.5503100
       22.666100       -9999.0000        8.3625800
       23.032700       -9999.0000        8.1789600
       23.405300       -9999.0000        7.9993900
       23.783800       -9999.0000        7.8237500
       24.168500       -9999.0000        7.6519700
       24.559400       -9999.0000        7.4839600
       24.956600       -9999.0000        7.3196400
       25.360300       -9999.0000        7.1549900
       25.770500       -9999.0000        6.8473100
       26.187300       -9999.0000        6.5528600
       26.610900       -9999.0000        6.2710700
       27.041300       -9999.0000        6.0014000
       27.478600       -9999.0000        5.7433200
       27.923100       -9999.0000        5.4963400
       28.374700       -9999.0000        5.2599900
       28.833700       -9999.0000        5.0337900
       29.300000        10.308200        4.8173300
       29.773900        10.317000        4.6101800
       30.255500        10.322200        4.4119300
       30.744900        10.326800        4.2222000
       31.242100        10.337400        4.0406400
       31.747500        10.372500        3.8457600
       32.260900        10.373300        3.6066100
       32.782700        10.341700        3.3823200
       33.313000        10.291900        3.1719900
       33.851800        10.230400        2.9747400
       34.399300        10.160200        2.7897500
       34.955700        10.083200        2.6162600
       35.521100        10.001100        2.4535700
       36.095600        9.9147600        2.3009900
       36.679400        9.8252800        2.1579000
       37.272700        9.7333500        2.0237000
       37.875500        9.6396400        1.8978600
       38.488200        9.5452200        1.7798300
       39.110700        9.4519700        1.6675000
       39.743200        9.3547200        1.5577500
       40.386100        9.2539000        1.4552200
       41.039300        9.1510400        1.3594500
       41.703100        9.0465100        1.2699700
       42.377600        8.9398600        1.1863900
       43.063000        8.8298200        1.1113300
       43.759500        8.7229100        1.0437100
       44.467300        8.6171300       0.98019900
       45.186500        8.5110700       0.92055800
       45.917400        8.4036600       0.86454400
       46.660000        8.2961000       0.81539700
       47.414700        8.1895700       0.76929600
       48.181600        8.0825300       0.72580100
       48.960900        7.9736500       0.68476600
       49.752800        7.8599800       0.64769800
       50.557600        7.7479400       0.62127500
       51.375300        7.6380200       0.59592800
       52.206200        7.5271700       0.57161600
       53.050600        7.4112000       0.54981100
       53.908700        7.2963300       0.53868800
       54.780600        7.1830700       0.52779000
       55.666700        7.0672200       0.51923200
       56.567000        6.9512400       0.51319200
       57.482000        6.8302200       0.51018600
       58.411700        6.7105500       0.51221600
       59.356400        6.5897800       0.51425400
       60.316500        6.4650300       0.51629100
       61.292100        6.3341000       0.51827900
       62.283400        6.1936200       0.52027400
       63.290800        6.0378200       0.52642300
       64.314500        5.8708600       0.53713300
       65.354700        5.6830100       0.54806000
       66.411800        5.4400500       0.55816100
       67.485900        5.0188100       0.65481400
       68.577500        4.7039700        1.0561000
       69.686700        4.7823600        1.5379100
       70.813800        4.9445800        1.8013100
       71.959100        5.1040900        1.8526400
       73.123000        5.2866200        1.9054300
       74.305700        5.1799200        1.5953200
       75.507600        5.0075800        1.6274000
       76.728900        4.8759100        1.6703700
       77.969900        4.7365000        1.7144600
       79.231000        4.5813800        1.7960800
       80.512500        4.4423500        1.8959600
       81.814700        4.3108400        2.0014000
       83.138000        4.1788500        2.1127100
       84.482700        4.0400200        2.2327000
       85.849100        3.9044700        2.3716600
       87.237700        3.7735900        2.5192700
       88.648700        3.6451500        2.6760600
       90.082500        3.5186500        2.8426200
       91.539500        3.3943400        3.0195400
       93.020100        3.2723800        3.2074700
       94.524600        3.1533900        3.4071000
       96.053500        3.0375100        3.6191500
       97.607100        2.9252000        3.8463500
       99.185800        2.8211900        4.0899600
       100.79000        2.7271800        4.3490100
       102.42000        2.6453800        4.6244500
       104.07700        2.5803300        4.9173500
       105.76000        2.5392900        5.2287900
       107.47100        2.5462800        5.5599700
       109.20900        2.6051400        5.8258900
       110.97500        2.6309300        6.0650800
       112.77000        2.6382000        6.3140900
       114.59400        2.6452900        6.5733300
       116.44800        2.6560800        6.8432100
       118.33100        2.6745700        7.1241700
       120.24500        2.7052400        7.4166700
       122.19000        2.7599200        7.7211700
       124.16600        2.8366100        7.9994500
       126.17500        2.9045900        8.2737300
       128.21500        2.9708400        8.5574200
       130.28900        3.0447400        8.8508400
       132.39700        3.1299000        9.1543100
       134.53800        3.2312500        9.4682000
       136.71400        3.3563600        9.7928500
       138.92500        3.5302600        10.128600
       141.17200        3.7362700        10.383900
       143.45600        3.9115900        10.620300
       145.77600        4.0686600        10.862000
       148.13400        4.2242700        11.109300
       150.53000        4.3822300        11.362100
       152.96400        4.5466700        11.620800
       155.43900        4.7285600        11.885300
       157.95300        4.9147300        12.127900
       160.50700        5.0955700        12.373600
       163.10300        5.2778100        12.624200
       165.74200        5.4639200        12.879900
       168.42200        5.6550800        13.140800
       171.14600        5.8479200        13.407000
       173.91500        6.0480700        13.694300
       176.72700        6.2717000        13.994900
       179.58600        6.5181200        14.302100
       182.49100        6.7896100        14.616100
       185.44200        7.0925700        14.937000
       188.44200        7.4407400        15.264900
       191.48900        7.8892800        15.594300
       194.58700        8.3326300        15.740100
       197.73400        8.7303200        15.887300
       200.93200        9.1038100        16.035900
       204.18200        9.4742300        16.185800
       207.48500        9.8493600        16.337100
       210.84000        10.238700        16.489900
       214.25100        10.696500        16.619500
       217.71600        11.117500        16.662100
       221.23700        11.497200        16.704700
       224.81600        11.863000        16.747500
       228.45200        12.220500        16.790400
       232.14700        12.573200        16.833400
       235.90200        12.923800        16.876500
       239.71700        13.275100        16.919700
       243.59500        13.630500        16.963000
       247.53500        13.999700        17.004100
       251.53800        14.366300        17.020200
       255.60700        14.728600        17.036300
       259.74100        15.092300        17.052300
       263.94200        15.462700        17.068500
       268.21100        15.846500        17.084800
       272.54900        16.257600        17.100800
       276.95700        16.733700        17.061500
       281.43700        17.177800        16.953000
       285.98900        17.574600        16.801400
       290.61500        17.935200        16.645300
       295.31500        18.268600        16.490800
       300.09200        18.584200        16.337400
       304.94500        18.885200        16.185300
       309.87800        19.173700        16.034700
       314.89000        19.451700        15.885700
       319.98300        19.720800        15.738100
       325.15800        19.981500        15.591500
       330.41800        20.234900        15.446600
       335.76200        20.482200        15.303000
       341.19200        20.723700        15.160600
       346.71100        20.960300        15.019800
       352.31900        21.193000        14.880300
       358.01700        21.422200        14.741900
       363.80800        21.648600        14.604600
       369.69200        21.873000        14.468700
       375.67200        22.097700        14.334500
       381.74800        22.324900        14.200900
       387.92200        22.559100        14.065300
       394.19700        22.808600        13.923800
       400.57300        23.056700        13.741600
       407.05200        23.274100        13.545500
       413.63500        23.473600        13.352700
       420.32600        23.661200        13.162000
       427.12400        23.839100        12.974000
       434.03200        24.009200        12.788700
       441.05200        24.173000        12.606100
       448.18600        24.335100        12.425000
       455.43500        24.490800        12.240700
       462.80200        24.639300        12.054500
       470.28700        24.778800        11.868700
       477.89400        24.910200        11.685700
       485.62300        25.035600        11.505900
       493.47800        25.156000        11.328900
       501.45900        25.271900        11.154400
       509.57000        25.384000        10.983000
       517.81200        25.494600        10.813400
       526.18700        25.602000        10.643700
       534.69800        25.705700        10.473000
       543.34600        25.803800        10.303300
       552.13400        25.900400        10.136600
       561.06500        25.994300        9.9632800
       570.13900        26.077800        9.7888700
       579.36100        26.153500        9.6198300
       588.73200        26.224700        9.4545500
       598.25400        26.292700        9.2926300
       607.93000        26.357900        9.1335100
       617.76300        26.421100        8.9771300
       627.75500        26.485400        8.8228000
       637.90800        26.549600        8.6634500
       648.22600        26.608800        8.4957400
       658.71100        26.652300        8.3239900
       669.36500        26.679400        8.1558100
       680.19100        26.693000        8.0088400
       691.19300        26.712400        7.8781000
       702.37200        26.748100        7.7525000
       713.73300        26.789000        7.6143000
       725.27700        26.819400        7.4686400
       737.00800        26.842500        7.3258300
       748.92800        26.860800        7.1857400
       761.04200        26.875800        7.0482300
       773.35100        26.888600        6.9123300
       785.85900        26.898500        6.7754400
       798.57000        26.901700        6.6383300
       811.48600        26.899200        6.5039000
       824.61100        26.892000        6.3722200
       837.94900        26.880200        6.2432100
       851.50200        26.864200        6.1171700
       865.27400        26.844300        5.9939800
       879.26900        26.820800        5.8735200
       893.49100        26.793600        5.7553900
       907.94300        26.762700        5.6396700
       922.62800        26.728400        5.5263400
       937.55100        26.690100        5.4140200
       952.71500        26.647400        5.3036700
       968.12400        26.600000        5.1952900
       983.78300        26.548100        5.0892100
       999.69500        26.492100        4.9848100
       1015.8600        26.432300        4.8820400
       1032.2900        26.366200        4.7773000
       1048.9900        26.292700        4.6739300
       1065.9600        26.211000        4.5719100
       1083.2000        26.121200        4.4720600
       1100.7200        26.023000        4.3744000
       1118.5200        25.916000        4.2789000
       1136.6100        25.799500        4.1855700
       1155.0000        25.672700        4.0942300
       1173.6800        25.534500        4.0048300
       1192.6600        25.383600        3.9174700
       1211.9500        25.218600        3.8319800
       1231.5500        25.037700        3.7482900
       1251.4700        24.838300        3.6660400
       1271.7200        24.617400        3.5851800
       1292.2900        24.370700        3.5055900
       1313.1900        24.093500        3.4278600
       1334.4300        23.779700        3.3518100
       1356.0100        23.420500        3.2773600
       1377.9400        23.003900        3.2047000
       1400.2300        22.512500        3.1336400
       1422.8800        21.919400        3.0641400
       1445.8900        21.180600        2.9961400
       1469.2800        20.215800        2.9310800
       1493.0400        18.858500        2.8696200
       1517.1900        16.652800        2.8187200
       1541.7300        10.896300        2.7700100
       1549.8000       -8.0093900        2.7543400
       1550.0000       -8.0015500        16.356400
       1566.6700        14.390600        16.134400
       1592.0100        18.575100        15.806900
       1617.7600        20.765300        15.486000
       1643.9200        22.247700        15.171700
       1670.5100        23.345400        14.863600
       1697.5300        24.180600        14.561900
       1724.9900        24.791500        14.266400
       1752.8900        25.115100        13.976600
       1781.2400        23.415600        13.692700
       1781.9000        22.089300        13.686200
       1782.1000        22.094900        15.761700
       1810.0500        26.442100        15.419900
       1839.3200        27.462900        15.075300
       1869.0700        28.226200        14.738300
       1899.3000        28.860900        14.408700
       1930.0200        29.411200        14.086500
       1961.2400        29.899700        13.771600
       1992.9600        30.336700        13.463700
       2025.2000        30.741700        13.170500
       2057.9500        31.115500        12.866500
       2091.2400        31.455100        12.567200
       2125.0600        31.765300        12.272800
       2159.4300        32.050700        11.983900
       2194.3600        32.313800        11.699500
       2229.8500        32.556500        11.420500
       2265.9200        32.781100        11.146900
       2302.5700        32.989100        10.878300
       2339.8100        33.181800        10.614700
       2377.6600        33.360100        10.356100
       2416.1100        33.525300        10.102700
       2455.1900        33.678300        9.8542200
       2494.9000        33.819900        9.6109900
       2535.2600        33.951200        9.3729900
       2576.2600        34.072700        9.1394200
       2617.9300        34.184800        8.9109100
       2660.2700        34.288400        8.6876200
       2703.3000        34.384400        8.4689400
       2747.0300        34.472400        8.2547000
       2791.4600        34.553600        8.0456000
       2836.6100        34.627900        7.8406600
       2882.4900        34.696100        7.6409600
       2929.1100        34.758800        7.4452000
       2976.4800        34.815600        7.2538300
       3024.6300        34.867400        7.0672300
       3073.5500        34.914300        6.8846700
       3123.2600        34.956600        6.7063900
       3173.7800        34.994500        6.5322900
       3225.1100        35.028600        6.3627400
       3277.2700        35.059000        6.1966400
       3330.2800        35.085600        6.0346000
       3384.1500        35.108800        5.8765200
       3438.8800        35.128900        5.7222500
       3494.5000        35.146100        5.5716300
       3551.0200        35.160300        5.4247600
       3608.4600        35.172000        5.2814600
       3666.8200        35.181200        5.1416500
       3726.1300        35.188000        5.0053800
       3786.4000        35.192700        4.8724000
       3847.6400        35.195300        4.7427500
       3909.8700        35.195900        4.6163600
       3973.1100        35.194800        4.4931300
       4037.3800        35.191900        4.3730100
       4102.6800        35.187400        4.2559400
       4169.0300        35.181500        4.1418400
       4236.4600        35.174100        4.0306300
       4304.9800        35.165400        3.9223100
       4374.6200        35.155500        3.8166600
       4445.3700        35.144400        3.7138000
       4517.2700        35.132300        3.6136100
       4590.3300        35.119100        3.5159300
       4664.5800        35.104900        3.4208800
