;  Atomic scattering factors for C.
;   
;  Concatenation of data from CXRO <http://www-cxro.lbl.gov>
;  and LLNL <http://www-phys.llnl.gov/V_Div/scattering/asf.html>
;  
;  E (eV) f1 f2
;---------------
       10.000000       -9999.0000       0.80688500
       10.161700       -9999.0000       0.85152200
       10.326100       -9999.0000       0.89862800
       10.493100       -9999.0000       0.94834100
       10.662800       -9999.0000        1.0008000
       10.835300       -9999.0000        1.0575500
       11.010600       -9999.0000        1.1216700
       11.188600       -9999.0000        1.1896800
       11.369600       -9999.0000        1.2618100
       11.553500       -9999.0000        1.3383200
       11.740400       -9999.0000        1.4194600
       11.930300       -9999.0000        1.5055300
       12.123200       -9999.0000        1.5897100
       12.319300       -9999.0000        1.6782000
       12.518600       -9999.0000        1.7716100
       12.721000       -9999.0000        1.8702300
       12.926800       -9999.0000        1.9743300
       13.135900       -9999.0000        2.0842300
       13.348300       -9999.0000        2.2002500
       13.564200       -9999.0000        2.2923500
       13.783600       -9999.0000        2.3828700
       14.006600       -9999.0000        2.4769600
       14.233100       -9999.0000        2.5747700
       14.463300       -9999.0000        2.6764500
       14.697300       -9999.0000        2.7711400
       14.935000       -9999.0000        2.8460500
       15.176500       -9999.0000        2.9229800
       15.422000       -9999.0000        3.0019900
       15.671400       -9999.0000        3.0831300
       15.924900       -9999.0000        3.1664700
       16.182500       -9999.0000        3.2421300
       16.444200       -9999.0000        3.2877800
       16.710200       -9999.0000        3.3340800
       16.980500       -9999.0000        3.3810300
       17.255100       -9999.0000        3.4286300
       17.534200       -9999.0000        3.4769100
       17.817800       -9999.0000        3.5204100
       18.106000       -9999.0000        3.5427700
       18.398900       -9999.0000        3.5652800
       18.696400       -9999.0000        3.5879300
       18.998800       -9999.0000        3.6107200
       19.306100       -9999.0000        3.6336600
       19.618400       -9999.0000        3.6567400
       19.935700       -9999.0000        3.6799700
       20.258200       -9999.0000        3.7033500
       20.585800       -9999.0000        3.6948900
       20.918800       -9999.0000        3.6720400
       21.257100       -9999.0000        3.6493400
       21.600900       -9999.0000        3.6267700
       21.950300       -9999.0000        3.6043400
       22.305300       -9999.0000        3.5820500
       22.666100       -9999.0000        3.5599000
       23.032700       -9999.0000        3.5332000
       23.405300       -9999.0000        3.4789200
       23.783800       -9999.0000        3.4254700
       24.168500       -9999.0000        3.3728500
       24.559400       -9999.0000        3.3210300
       24.956600       -9999.0000        3.2700000
       25.360300       -9999.0000        3.2197700
       25.770500       -9999.0000        3.1703000
       26.187300       -9999.0000        3.1209600
       26.610900       -9999.0000        3.0635000
       27.041300       -9999.0000        3.0070800
       27.478600       -9999.0000        2.9517100
       27.923100       -9999.0000        2.8973600
       28.374700       -9999.0000        2.8440100
       28.833700       -9999.0000        2.7916400
       29.300000        3.6331800        2.7402400
       29.773900        3.6737800        2.6897800
       30.255500        3.7127000        2.6361800
       30.744900        3.7475300        2.5836000
       31.242100        3.7797300        2.5320600
       31.747500        3.8096900        2.4815500
       32.260900        3.8376400        2.4320500
       32.782700        3.8637400        2.3835400
       33.313000        3.8880700        2.3359900
       33.851800        3.9107100        2.2894000
       34.399300        3.9315600        2.2437300
       34.955700        3.9502600        2.1989800
       35.521100        3.9670900        2.1579900
       36.095600        3.9848800        2.1182700
       36.679400        4.0025300        2.0792800
       37.272700        4.0199200        2.0410100
       37.875500        4.0371200        2.0034400
       38.488200        4.0543200        1.9665700
       39.110700        4.0736000        1.9303700
       39.743200        4.0944900        1.8901100
       40.386100        4.1101000        1.8465000
       41.039300        4.1222900        1.8039000
       41.703100        4.1321100        1.7622800
       42.377600        4.1398500        1.7216300
       43.063000        4.1455900        1.6819100
       43.759500        4.1492500        1.6431000
       44.467300        4.1495500        1.6052000
       45.186500        4.1458400        1.5691700
       45.917400        4.1417500        1.5437600
       46.660000        4.1417400        1.5187600
       47.414700        4.1430000        1.4941700
       48.181600        4.1448600        1.4699800
       48.960900        4.1469800        1.4461800
       49.752800        4.1491300        1.4227600
       50.557600        4.1511300        1.3997200
       51.375300        4.1527700        1.3770500
       52.206200        4.1537100        1.3547500
       53.050600        4.1530700        1.3328200
       53.908700        4.1496000        1.3154600
       54.780600        4.1499700        1.3016800
       55.666700        4.1527000        1.2880400
       56.567000        4.1568100        1.2745400
       57.482000        4.1620900        1.2611800
       58.411700        4.1685100        1.2479700
       59.356400        4.1762500        1.2348900
       60.316500        4.1860000        1.2219500
       61.292100        4.1994900        1.2065400
       62.283400        4.2109600        1.1849800
       63.290800        4.2191000        1.1638100
       64.314500        4.2258200        1.1430100
       65.354700        4.2316100        1.1225800
       66.411800        4.2366600        1.1025200
       67.485900        4.2411100        1.0828200
       68.577500        4.2450400        1.0634700
       69.686700        4.2485200        1.0444700
       70.813800        4.2516000        1.0258000
       71.959100        4.2543000        1.0074700
       73.123000        4.2566700       0.98947000
       74.305700        4.2587200       0.97178800
       75.507600        4.2604700       0.95442300
       76.728900        4.2619400       0.93736900
       77.969900        4.2631400       0.92061700
       79.231000        4.2640800       0.90416700
       80.512500        4.2647800       0.88800900
       81.814700        4.2652400       0.87214100
       83.138000        4.2654600       0.85655600
       84.482700        4.2654700       0.84125000
       85.849100        4.2652500       0.82621700
       87.237700        4.2648100       0.81145300
       88.648700        4.2641700       0.79695200
       90.082500        4.2633200       0.78271100
       91.539500        4.2622600       0.76872400
       93.020100        4.2610000       0.75498700
       94.524600        4.2595300       0.74149600
       96.053500        4.2578700       0.72824600
       97.607100        4.2560000       0.71523200
       99.185800        4.2539300       0.70245100
       100.79000        4.2516600       0.68989800
       102.42000        4.2491900       0.67757000
       104.07700        4.2465100       0.66546200
       105.76000        4.2436300       0.65357000
       107.47100        4.2405400       0.64189100
       109.20900        4.2372400       0.63042100
       110.97500        4.2337300       0.61915600
       112.77000        4.2300000       0.60809100
       114.59400        4.2260600       0.59722400
       116.44800        4.2218900       0.58655200
       118.33100        4.2175100       0.57607100
       120.24500        4.2128900       0.56577700
       122.19000        4.2080600       0.55566600
       124.16600        4.2029900       0.54573700
       126.17500        4.1977200       0.53598500
       128.21500        4.1922500       0.52640600
       130.28900        4.1866600       0.51700000
       132.39700        4.1812200       0.50776100
       134.53800        4.1753300       0.49745700
       136.71400        4.1686000       0.48736100
       138.92500        4.1612200       0.47746900
       141.17200        4.1532900       0.46777700
       143.45600        4.1448400       0.45828300
       145.77600        4.1358700       0.44898100
       148.13400        4.1263800       0.43986800
       150.53000        4.1163600       0.43094100
       152.96400        4.1057800       0.42219300
       155.43900        4.0946400       0.41362400
       157.95300        4.0829000       0.40522900
       160.50700        4.0705400       0.39700400
       163.10300        4.0575400       0.38894600
       165.74200        4.0438500       0.38105200
       168.42200        4.0294500       0.37331800
       171.14600        4.0142900       0.36574100
       173.91500        3.9983400       0.35831700
       176.72700        3.9815800       0.35104500
       179.58600        3.9639800       0.34391900
       182.49100        3.9455800       0.33693900
       185.44200        3.9271600       0.33010000
       188.44200        3.9070500       0.32099500
       191.48900        3.8844300       0.31209600
       194.58700        3.8597700       0.30344300
       197.73400        3.8330800       0.29503100
       200.93200        3.8042800       0.28685100
       204.18200        3.7732300       0.27889800
       207.48500        3.7397200       0.27116600
       210.84000        3.7035100       0.26364800
       214.25100        3.6642800       0.25633800
       217.71600        3.6216400       0.24923100
       221.23700        3.5749900       0.24251600
       224.81600        3.5243500       0.23638100
       228.45200        3.4690200       0.23040200
       232.14700        3.4081200       0.22457300
       235.90200        3.3406100       0.21889200
       239.71700        3.2652200       0.21335500
       243.59500        3.1802700       0.20795800
       247.53500        3.0847400       0.20217900
       251.53800        2.9729300       0.19468300
       255.60700        2.8400200       0.18746500
       259.74100        2.6798500       0.18051400
       263.94200        2.4813800       0.17382100
       268.21100        2.2250500       0.16737700
       272.54900        1.8715900       0.16117100
       276.95700        1.3219200       0.15519500
       281.43700       0.15857300       0.14944100
       284.10000       -4.0488200       0.14616300
       284.30000       -4.0403100        4.1887200
       285.98900      -0.28333000        4.1585700
       290.61500        1.4396700        4.0779800
       295.31500        2.2057600        3.9989600
       300.09200        2.7128600        3.9214600
       304.94500        3.0947500        3.8454600
       309.87800        3.4018600        3.7709500
       314.89000        3.6588400        3.6978700
       319.98300        3.8796900        3.6262000
       325.15800        4.0731500        3.5559300
       330.41800        4.2451000        3.4870300
       335.76200        4.3996700        3.4194500
       341.19200        4.5399300        3.3531800
       346.71100        4.6682300        3.2882000
       352.31900        4.7864200        3.2244800
       358.01700        4.8960600        3.1620000
       363.80800        4.9985200        3.1007200
       369.69200        5.0952400        3.0406300
       375.67200        5.1891000        2.9817000
       381.74800        5.2792600        2.9164900
       387.92200        5.3604900        2.8481700
       394.19700        5.4326700        2.7814400
       400.57300        5.4989700        2.7162800
       407.05200        5.5601000        2.6526400
       413.63500        5.6166900        2.5905000
       420.32600        5.6692000        2.5298100
       427.12400        5.7180300        2.4705400
       434.03200        5.7635100        2.4126600
       441.05200        5.8059300        2.3561400
       448.18600        5.8455700        2.3009400
       455.43500        5.8826400        2.2470300
       462.80200        5.9173700        2.1943900
       470.28700        5.9499800        2.1429800
       477.89400        5.9807400        2.0927800
       485.62300        6.0102200        2.0436700
       493.47800        6.0376700        1.9941800
       501.45900        6.0626800        1.9458900
       509.57000        6.0857900        1.8987600
       517.81200        6.1072100        1.8527800
       526.18700        6.1270900        1.8079100
       534.69800        6.1455600        1.7641200
       543.34600        6.1627100        1.7214000
       552.13400        6.1786400        1.6797100
       561.06500        6.1934400        1.6390300
       570.13900        6.2071700        1.5993300
       579.36100        6.2199200        1.5606000
       588.73200        6.2317400        1.5228100
       598.25400        6.2427100        1.4859300
       607.93000        6.2528700        1.4499400
       617.76300        6.2622700        1.4148300
       627.75500        6.2709700        1.3805600
       637.90800        6.2790000        1.3471300
       648.22600        6.2863900        1.3145000
       658.71100        6.2931200        1.2826700
       669.36500        6.2990100        1.2516000
       680.19100        6.3040600        1.2224900
       691.19300        6.3097200        1.1952300
       702.37200        6.3182200        1.1689700
       713.73300        6.3278300        1.1395800
       725.27700        6.3344900        1.1084400
       737.00800        6.3393300        1.0781600
       748.92800        6.3430600        1.0487100
       761.04200        6.3459400        1.0200600
       773.35100        6.3481300       0.99218200
       785.85900        6.3497300       0.96504600
       798.57000        6.3508000       0.93863500
       811.48600        6.3514000       0.91293900
       824.61100        6.3516000       0.88795400
       837.94900        6.3514800       0.86366100
       851.50200        6.3511100       0.83992300
       865.27400        6.3504200       0.81671400
       879.26900        6.3493400       0.79404100
       893.49100        6.3479300       0.77200600
       907.94300        6.3462800       0.75058400
       922.62800        6.3444500       0.72976100
       937.55100        6.3424400       0.70935800
       952.71500        6.3401600       0.68950000
       968.12400        6.3376800       0.67017700
       983.78300        6.3350300       0.65137800
       999.69500        6.3322200       0.63311600
       1015.8600        6.3293000       0.61537700
       1032.2900        6.3264300       0.59819400
       1048.9900        6.3236200       0.58122600
       1065.9600        6.3204800       0.56445900
       1083.2000        6.3171000       0.54819800
       1100.7200        6.3135900       0.53239100
       1118.5200        6.3099600       0.51702000
       1136.6100        6.3062200       0.50211600
       1155.0000        6.3024200       0.48764000
       1173.6800        6.2985700       0.47357900
       1192.6600        6.2946900       0.45993300
       1211.9500        6.2908100       0.44667500
       1231.5500        6.2869400       0.43379400
       1251.4700        6.2831300       0.42117500
       1271.7200        6.2793100       0.40880400
       1292.2900        6.2753400       0.39665200
       1313.1900        6.2712700       0.38487200
       1334.4300        6.2671600       0.37343900
       1356.0100        6.2630200       0.36234200
       1377.9400        6.2588600       0.35157800
       1400.2300        6.2546900       0.34113200
       1422.8800        6.2505400       0.33099400
       1445.8900        6.2464000       0.32115900
       1469.2800        6.2423000       0.31160500
       1493.0400        6.2382200       0.30231600
       1517.1900        6.2341800       0.29323000
       1541.7300        6.2301000       0.28440700
       1566.6700        6.2260400       0.27584700
       1592.0100        6.2220000       0.26754500
       1617.7600        6.2179800       0.25949300
       1643.9200        6.2140000       0.25168400
       1670.5100        6.2100500       0.24411000
       1697.5300        6.2061600       0.23676400
       1724.9900        6.2023300       0.22964200
       1752.8900        6.1985700       0.22266500
       1781.2400        6.1948000       0.21587700
       1810.0500        6.1910600       0.20927900
       1839.3200        6.1873400       0.20288400
       1869.0700        6.1836600       0.19668500
       1899.3000        6.1800300       0.19067600
       1930.0200        6.1764300       0.18485000
       1961.2400        6.1728800       0.17920200
       1992.9600        6.1693800       0.17372600
       2025.2000        6.1659400       0.16847400
       2057.9500        6.1626100       0.16329200
       2091.2400        6.1592800       0.15826300
       2125.0600        6.1560000       0.15338400
       2159.4300        6.1527600       0.14864800
       2194.3600        6.1495700       0.14405300
       2229.8500        6.1464300       0.13959300
       2265.9200        6.1433400       0.13526700
       2302.5700        6.1402800       0.13106900
       2339.8100        6.1372900       0.12699800
       2377.6600        6.1343300       0.12304200
       2416.1100        6.1314300       0.11921000
       2455.1900        6.1285700       0.11549200
       2494.9000        6.1257600       0.11188200
       2535.2600        6.1230000       0.10838300
       2576.2600        6.1202800       0.10499000
       2617.9300        6.1176200       0.10169400
       2660.2700        6.1150000      0.098504200
       2703.3000        6.1124300      0.095402800
       2747.0300        6.1099000      0.092397100
       2791.4600        6.1074200      0.089483200
       2836.6100        6.1049800      0.086661700
       2882.4900        6.1025900      0.083914800
       2929.1100        6.1002400      0.081259900
       2976.4800        6.0979400      0.078682100
       3024.6300        6.0956900      0.076182500
       3073.5500        6.0934700      0.073758400
       3123.2600        6.0913000      0.071408000
       3173.7800        6.0891700      0.069128800
       3225.1100        6.0870800      0.066919400
       3277.2700        6.0850300      0.064776700
       3330.2800        6.0830200      0.062699100
       3384.1500        6.0810500      0.060685300
       3438.8800        6.0791200      0.058732700
       3494.5000        6.0772300      0.056839600
       3551.0200        6.0753800      0.055004200
       3608.4600        6.0735700      0.053224400
       3666.8200        6.0717900      0.051499700
       3726.1300        6.0700500      0.049827800
       3786.4000        6.0683400      0.048207100
       3847.6400        6.0666700      0.046635200
       3909.8700        6.0650400      0.045112700
       3973.1100        6.0634300      0.043636700
       4037.3800        6.0618600      0.042221200
       4102.6800        6.0603300      0.040835100
       4169.0300        6.0588300      0.039491900
       4236.4600        6.0573600      0.038192100
       4304.9800        6.0559200      0.036932400
       4374.6200        6.0545100      0.035713000
       4445.3700        6.0531300      0.034532900
       4517.2700        6.0517800      0.033389600
       4590.3300        6.0504600      0.032282500
       4664.5800        6.0491700      0.031210000
       4740.0300        6.0479100      0.030172300
       4816.6900        6.0466700      0.029167800
