;  Atomic scattering factors for Cd.
;   
;  Concatenation of data from CXRO <http://www-cxro.lbl.gov>
;  and LLNL <http://www-phys.llnl.gov/V_Div/scattering/asf.html>
;  
;  E (eV) f1 f2
;---------------
       10.000000       -9999.0000       0.40003900
       10.161700       -9999.0000       0.41841900
       10.326100       -9999.0000       0.43764400
       10.493100       -9999.0000       0.45775200
       10.662800       -9999.0000       0.49361500
       10.835300       -9999.0000       0.53685100
       11.010600       -9999.0000       0.59257800
       11.188600       -9999.0000       0.66328200
       11.369600       -9999.0000       0.74242000
       11.553500       -9999.0000       0.86125500
       11.740400       -9999.0000       0.99374600
       11.930300       -9999.0000        1.0440800
       12.123200       -9999.0000        1.0969600
       12.319300       -9999.0000        1.1525200
       12.518600       -9999.0000        1.2109000
       12.721000       -9999.0000        1.2722300
       12.926800       -9999.0000        1.3170000
       13.135900       -9999.0000        1.3551800
       13.348300       -9999.0000        1.3944700
       13.564200       -9999.0000        1.4349000
       13.783600       -9999.0000        1.4667500
       14.006600       -9999.0000        1.4950300
       14.233100       -9999.0000        1.5238600
       14.463300       -9999.0000        1.5532400
       14.697300       -9999.0000        1.5831900
       14.935000       -9999.0000        1.6138600
       15.176500       -9999.0000        1.6518900
       15.422000       -9999.0000        1.6908200
       15.671400       -9999.0000        1.7306800
       15.924900       -9999.0000        1.7714600
       16.182500       -9999.0000        1.8132200
       16.444200       -9999.0000        1.8559500
       16.710200       -9999.0000        1.8996900
       16.980500       -9999.0000        1.9444700
       17.255100       -9999.0000        1.9903000
       17.534200       -9999.0000        2.0372000
       17.817800       -9999.0000        2.0852200
       18.106000       -9999.0000        2.1343700
       18.398900       -9999.0000        2.1846700
       18.696400       -9999.0000        2.2361600
       18.998800       -9999.0000        2.3033500
       19.306100       -9999.0000        2.3830000
       19.618400       -9999.0000        2.4654100
       19.935700       -9999.0000        2.5506700
       20.258200       -9999.0000        2.6388800
       20.585800       -9999.0000        2.7301300
       20.918800       -9999.0000        2.8245500
       21.257100       -9999.0000        2.9363400
       21.600900       -9999.0000        3.0645700
       21.950300       -9999.0000        3.1984100
       22.305300       -9999.0000        3.3380800
       22.666100       -9999.0000        3.4838500
       23.032700       -9999.0000        3.6359900
       23.405300       -9999.0000        3.7947800
       23.783800       -9999.0000        3.9605000
       24.168500       -9999.0000        4.1036200
       24.559400       -9999.0000        4.2496500
       24.956600       -9999.0000        4.4008800
       25.360300       -9999.0000        4.5574900
       25.770500       -9999.0000        4.7196700
       26.187300       -9999.0000        4.8876200
       26.610900       -9999.0000        5.0615500
       27.041300       -9999.0000        5.2164500
       27.478600       -9999.0000        5.3727100
       27.923100       -9999.0000        5.5336600
       28.374700       -9999.0000        5.6994200
       28.833700       -9999.0000        5.8701600
       29.300000        1.9213200        6.0460000
       29.773900        1.9587000        6.2271200
       30.255500        2.0034700        6.4136600
       30.744900        2.0588700        6.6057900
       31.242100        2.1318800        6.8036800
       31.747500        2.2299500        6.9760800
       32.260900        2.3095500        7.1337100
       32.782700        2.3838600        7.2949100
       33.313000        2.4575000        7.4597400
       33.851800        2.5326200        7.6283000
       34.399300        2.6107700        7.8006700
       34.955700        2.6935400        7.9769300
       35.521100        2.7832900        8.1571800
       36.095600        2.8867300        8.3415000
       36.679400        2.9981000        8.5037000
       37.272700        3.1009200        8.6657200
       37.875500        3.2015500        8.8308200
       38.488200        3.3032600        8.9990700
       39.110700        3.4071000        9.1705200
       39.743200        3.5139000        9.3452400
       40.386100        3.6243600        9.5232900
       41.039300        3.7393800        9.7047400
       41.703100        3.8595400        9.8886400
       42.377600        3.9844800        10.075700
       43.063000        4.1152300        10.266200
       43.759500        4.2528000        10.460400
       44.467300        4.3983100        10.658300
       45.186500        4.5532300        10.859900
       45.917400        4.7196800        11.065300
       46.660000        4.9045800        11.274600
       47.414700        5.1253600        11.475700
       48.181600        5.3380100        11.632300
       48.960900        5.5375300        11.791000
       49.752800        5.7352200        11.951800
       50.557600        5.9343200        12.114900
       51.375300        6.1367300        12.280200
       52.206200        6.3439600        12.447800
       53.050600        6.5575200        12.617600
       53.908700        6.7796200        12.789800
       54.780600        7.0155600        12.959900
       55.666700        7.2539100        13.121300
       56.567000        7.4960000        13.284700
       57.482000        7.7447800        13.450100
       58.411700        8.0024300        13.617600
       59.356400        8.2708800        13.787200
       60.316500        8.5525600        13.958900
       61.292100        8.8508300        14.132700
       62.283400        9.1728800        14.308700
       63.290800        9.5379700        14.486900
       64.314500        9.9509400        14.589300
       65.354700        10.317000        14.648000
       66.411800        10.665100        14.706900
       67.485900        11.007400        14.766000
       68.577500        11.350300        14.825400
       69.686700        11.700500        14.885000
       70.813800        12.063000        14.928100
       71.959100        12.415700        14.959600
       73.123000        12.767200        14.991100
       74.305700        13.122200        15.022700
       75.507600        13.484200        15.054400
       76.728900        13.858000        15.086100
       77.969900        14.255800        15.117900
       79.231000        14.661600        15.106300
       80.512500        15.061200        15.093200
       81.814700        15.464200        15.080100
       83.138000        15.879100        15.067100
       84.482700        16.312600        15.054000
       85.849100        16.780400        15.041000
       87.237700        17.338800        14.980900
       88.648700        17.851000        14.834200
       90.082500        18.339800        14.689000
       91.539500        18.847500        14.545100
       93.020100        19.431600        14.402700
       94.524600        20.033800        14.081500
       96.053500        20.549400        13.728900
       97.607100        21.043600        13.385200
       99.185800        21.568800        13.050100
       100.79000        22.262600        12.663600
       102.42000        22.793800        11.862300
       104.07700        23.119500        11.111600
       105.76000        23.320900        10.408500
       107.47100        23.453000        9.7498300
       109.20900        23.538400        9.1328700
       110.97500        23.600200        8.5549500
       112.77000        23.692700        8.0135900
       114.59400        23.788700        7.3322100
       116.44800        23.707200        6.6255500
       118.33100        23.529800        5.9870100
       120.24500        23.293500        5.4099900
       122.19000        23.010900        4.8885900
       124.16600        22.681600        4.4174500
       126.17500        22.258500        4.0514800
       128.21500        21.929000        3.8275700
       130.28900        21.652600        3.6160400
       132.39700        21.405300        3.4162000
       134.53800        21.183300        3.2273900
       136.71400        21.022600        3.0490300
       138.92500        20.832900        2.7406900
       141.17200        20.550400        2.4522100
       143.45600        20.182800        2.2298300
       145.77600        19.850300        2.0954700
       148.13400        19.509800        1.9767100
       150.53000        19.196700        1.9307800
       152.96400        18.908700        1.8859200
       155.43900        18.612600        1.8542900
       157.95300        18.338500        1.8519300
       160.50700        18.072900        1.8495700
       163.10300        17.771100        1.8725000
       165.74200        17.512400        1.9669200
       168.42200        17.284900        2.0701800
       171.14600        17.089100        2.1871000
       173.91500        16.921000        2.3106300
       176.72700        16.791000        2.4411300
       179.58600        16.686700        2.5374200
       182.49100        16.575000        2.6215500
       185.44200        16.464100        2.7084700
       188.44200        16.357900        2.7982700
       191.48900        16.257600        2.8910500
       194.58700        16.164200        2.9869100
       197.73400        16.078700        3.0859400
       200.93200        16.003000        3.1882600
       204.18200        15.944500        3.2939700
       207.48500        15.891300        3.3762800
       210.84000        15.835400        3.4596300
       214.25100        15.779400        3.5450300
       217.71600        15.726900        3.6325500
       221.23700        15.679000        3.7222200
       224.81600        15.637500        3.8141000
       228.45200        15.605400        3.9082500
       232.14700        15.593600        4.0047300
       235.90200        15.591300        4.0629800
       239.71700        15.574400        4.1117200
       243.59500        15.546700        4.1610500
       247.53500        15.515600        4.2109700
       251.53800        15.482600        4.2614800
       255.60700        15.449100        4.3126000
       259.74100        15.416900        4.3643400
       263.94200        15.388400        4.4167000
       268.21100        15.390200        4.4552400
       272.54900        15.367700        4.4572500
       276.95700        15.320500        4.4592500
       281.43700        15.261600        4.4612600
       285.98900        15.192000        4.4632700
       290.61500        15.112300        4.4652800
       295.31500        15.022700        4.4672900
       300.09200        14.923400        4.4693100
       304.94500        14.814600        4.4713200
       309.87800        14.699000        4.4731400
       314.89000        14.568400        4.4626600
       319.98300        14.419400        4.4522100
       325.15800        14.251700        4.4417800
       330.41800        14.064900        4.4313700
       335.76200        13.857000        4.4209900
       341.19200        13.624700        4.4106300
       346.71100        13.365000        4.4044000
       352.31900        13.078600        4.4009100
       358.01700        12.760600        4.3974300
       363.80800        12.402500        4.3939600
       369.69200        11.993000        4.3904800
       375.67200        11.498000        4.3960900
       381.74800        10.966700        4.4747800
       387.92200        10.391300        4.5548800
       394.19700        9.7417200        4.6364100
       400.57300        8.9872100        4.7194000
       405.10000        8.6868600        4.7784200
       405.30000        8.6223600        4.3228800
       407.05200        7.7904500        4.5216800
       413.63500        6.3690900        5.3451400
       420.32600        5.1879100        6.3185800
       427.12400        4.0931500        7.4692600
       434.03200        3.0534500        8.8295400
       441.05200        2.1052400        10.437500
       448.18600        1.2754700        12.338300
       455.43500       0.66441200        14.570000
       462.80200       0.35155300        17.190900
       470.28700       0.60195000        20.283100
       477.89400        2.2133800        23.683500
       485.62300        4.9157000        26.015400
       493.47800        7.8815300        26.920600
       501.45900        10.146000        27.007500
       509.57000        11.834400        27.094700
       517.81200        13.484600        27.182100
       526.18700        14.934000        26.839100
       534.69800        16.090800        26.462400
       543.34600        17.004200        26.091000
       552.13400        17.713400        25.724800
       561.06500        18.117900        25.542800
       570.13900        18.600400        25.634200
       579.36100        19.204700        25.725900
       588.73200        19.824100        25.817900
       598.25400        20.456000        25.910300
       607.93000        21.106200        26.002900
       617.76300        21.779400        26.060600
       627.75500        22.432900        26.087500
       637.90800        23.065400        26.114400
       648.22600        23.694000        26.141300
       658.71100        24.323300        26.168300
       669.36500        24.958400        26.195200
       680.19100        25.624200        26.222200
       691.19300        26.313300        26.200000
       702.37200        26.971300        26.134900
       713.73300        27.611700        26.070000
       725.27700        28.249900        26.005200
       737.00800        28.893500        25.940600
       748.92800        29.599500        25.876200
       761.04200        30.299900        25.701600
       773.35100        30.950300        25.511800
       785.85900        31.585800        25.323400
       798.57000        32.227400        25.136400
       811.48600        32.919500        24.950700
       824.61100        33.657900        24.614400
       837.94900        34.292900        24.175100
       851.50200        34.816800        23.751900
       865.27400        35.293700        23.346800
       879.26900        35.744700        22.958300
       893.49100        36.173800        22.576200
       907.94300        36.584200        22.200300
       922.62800        36.984700        21.830600
       937.55100        37.367400        21.446600
       952.71500        37.729600        21.064200
       968.12400        38.070500        20.684100
       983.78300        38.397000        20.310900
       999.69500        38.715300        19.939900
       1015.8600        39.034300        19.570900
       1032.2900        39.330200        19.167000
       1048.9900        39.598300        18.766600
       1065.9600        39.839400        18.369800
       1083.2000        40.059700        17.981300
       1100.7200        40.262700        17.601200
       1118.5200        40.450700        17.229200
       1136.6100        40.624900        16.864900
       1155.0000        40.786600        16.508300
       1173.6800        40.936600        16.159200
       1192.6600        41.075800        15.817600
       1211.9500        41.204800        15.483100
       1231.5500        41.324200        15.155700
       1251.4700        41.434300        14.835700
       1271.7200        41.536000        14.523100
       1292.2900        41.630500        14.217900
       1313.1900        41.718000        13.918800
       1334.4300        41.798400        13.626000
       1356.0100        41.872000        13.339400
       1377.9400        41.939000        13.058900
       1400.2300        41.999500        12.784300
       1422.8800        42.053300        12.515500
       1445.8900        42.100000        12.252400
       1469.2800        42.137800        11.996900
       1493.0400        42.166600        11.749900
       1517.1900        42.194700        11.521900
       1541.7300        42.225300        11.300200
       1566.6700        42.257100        11.082800
       1592.0100        42.288200        10.869700
       1617.7600        42.318500        10.660600
       1643.9200        42.347600        10.455400
       1670.5100        42.375900        10.254400
       1697.5300        42.403600        10.057100
       1724.9900        42.437900        9.8635100
       1752.8900        42.470100        9.6601500
       1781.2400        42.494300        9.4564000
       1810.0500        42.511300        9.2535000
       1839.3200        42.521100        9.0547400
       1869.0700        42.526200        8.8603100
       1899.3000        42.527200        8.6703100
       1930.0200        42.524700        8.4843500
       1961.2400        42.519100        8.3023500
       1992.9600        42.508400        8.1241300
       2025.2000        42.505500        7.9565100
       2057.9500        42.501000        7.7757700
       2091.2400        42.486700        7.5969300
       2125.0600        42.467200        7.4203700
       2159.4300        42.442500        7.2455100
       2194.3600        42.412700        7.0729400
       2229.8500        42.377700        6.9021200
       2265.9200        42.337400        6.7334700
       2302.5700        42.291400        6.5663700
       2339.8100        42.239300        6.4013500
       2377.6600        42.181300        6.2385300
       2416.1100        42.116800        6.0775100
       2455.1900        42.045300        5.9185100
       2494.9000        41.966700        5.7614800
       2535.2600        41.880300        5.6061700
       2576.2600        41.785200        5.4528500
       2617.9300        41.681100        5.3015100
       2660.2700        41.567000        5.1521200
       2703.3000        41.442000        5.0043800
       2747.0300        41.304800        4.8585300
       2791.4600        41.154000        4.7146500
       2836.6100        40.988000        4.5726800
       2882.4900        40.804800        4.4323800
       2929.1100        40.601700        4.2938600
       2976.4800        40.375200        4.1572500
       3024.6300        40.121400        4.0224800
       3073.5500        39.834800        3.8894100
       3123.2600        39.507600        3.7579100
       3173.7800        39.129200        3.6283100
       3225.1100        38.684200        3.5005700
       3277.2700        38.148800        3.3744800
       3330.2800        37.482100        3.2498100
       3384.1500        36.606300        3.1269600
       3438.8800        35.340900        3.0059400
       3494.5000        33.028500        2.8865500
       3537.4000        17.022800        2.7989500
       3537.6000        17.023200        11.038900
       3551.0200        29.859200        10.976900
       3608.4600        33.870100        10.717600
       3666.8200        34.719300        10.464800
       3726.1300        30.673000        10.218000
       3726.9000        28.071400        10.214800
       3727.1000        28.076600        14.018700
       3786.4000        36.571000        13.668000
       3847.6400        37.941000        13.320500
       3909.8700        38.734600        12.981200
       3973.1100        39.211500        12.650800
       4017.9000        35.810700        12.425000
       4018.1000        35.816400        14.462600
       4037.3800        39.205700        14.361100
       4102.6800        40.758200        14.025800
       4169.0300        41.657700        13.696600
       4236.4600        42.357200        13.373000
       4304.9800        42.942600        13.056300
       4374.6200        43.448700        12.744200
