;  Atomic scattering factors for Ce.
;   
;  Concatenation of data from CXRO <http://www-cxro.lbl.gov>
;  and LLNL <http://www-phys.llnl.gov/V_Div/scattering/asf.html>
;  
;  E (eV) f1 f2
;---------------
       10.000000       -9999.0000        1.2836900
       10.161700       -9999.0000        1.2638900
       10.326100       -9999.0000        1.2444100
       10.493100       -9999.0000        1.2252200
       10.662800       -9999.0000        1.2063200
       10.835300       -9999.0000        1.1877200
       11.010600       -9999.0000        1.1694100
       11.188600       -9999.0000        1.1513800
       11.369600       -9999.0000        1.1336200
       11.553500       -9999.0000        1.1161400
       11.740400       -9999.0000        1.0989300
       11.930300       -9999.0000        1.0819900
       12.123200       -9999.0000        1.0653000
       12.319300       -9999.0000        1.0488800
       12.518600       -9999.0000        1.0327000
       12.721000       -9999.0000        1.0167800
       12.926800       -9999.0000        1.0067600
       13.135900       -9999.0000        1.0003800
       13.348300       -9999.0000       0.99404000
       13.564200       -9999.0000       0.98773900
       13.783600       -9999.0000       0.98147900
       14.006600       -9999.0000       0.95600700
       14.233100       -9999.0000       0.92629500
       14.463300       -9999.0000       0.89750600
       14.697300       -9999.0000       0.86961200
       14.935000       -9999.0000       0.84717500
       15.176500       -9999.0000       0.82603800
       15.422000       -9999.0000       0.80543000
       15.671400       -9999.0000       0.78533600
       15.924900       -9999.0000       0.76803900
       16.182500       -9999.0000       0.75166000
       16.444200       -9999.0000       0.74310800
       16.710200       -9999.0000       0.73842600
       16.980500       -9999.0000       0.73377300
       17.255100       -9999.0000       0.73048800
       17.534200       -9999.0000       0.73259000
       17.817800       -9999.0000       0.73469800
       18.106000       -9999.0000       0.73834200
       18.398900       -9999.0000       0.75293900
       18.696400       -9999.0000       0.76782400
       18.998800       -9999.0000       0.78300400
       19.306100       -9999.0000       0.80233300
       19.618400       -9999.0000       0.83093700
       19.935700       -9999.0000       0.86056200
       20.258200       -9999.0000       0.89625300
       20.585800       -9999.0000       0.94754500
       20.918800       -9999.0000        1.0245300
       21.257100       -9999.0000        1.1640500
       21.600900       -9999.0000        1.3919700
       21.950300       -9999.0000        1.7428600
       22.305300       -9999.0000        2.2885500
       22.666100       -9999.0000        4.3097100
       23.032700       -9999.0000        9.1112200
       23.405300       -9999.0000        14.531800
       23.783800       -9999.0000        16.045800
       24.168500       -9999.0000        16.506700
       24.559400       -9999.0000        16.980700
       24.956600       -9999.0000        17.214200
       25.360300       -9999.0000        17.363700
       25.770500       -9999.0000        17.337000
       26.187300       -9999.0000        17.208700
       26.610900       -9999.0000        17.081200
       27.041300       -9999.0000        16.783400
       27.478600       -9999.0000        16.359000
       27.923100       -9999.0000        15.948400
       28.374700       -9999.0000        15.650400
       28.833700       -9999.0000        15.357900
       29.300000        6.5033500        14.861100
       29.773900        7.1077200        14.358000
       30.255500        7.6189500        13.817400
       30.744900        8.0217900        13.292800
       31.242100        8.3162000        12.832600
       31.747500        8.6346900        12.457300
       32.260900        8.9791500        12.092900
       32.782700        9.3816100        11.688400
       33.313000        9.6936400        11.153700
       33.851800        9.9100000        10.643500
       34.399300        10.063900        10.156600
       34.955700        10.162700        9.6919200
       35.521100        10.217300        9.2877700
       36.095600        10.273900        8.9134900
       36.679400        10.321200        8.5543000
       37.272700        10.354800        8.2095900
       37.875500        10.376300        7.8806400
       38.488200        10.388000        7.5648500
       39.110700        10.392300        7.2617300
       39.743200        10.397600        6.9707500
       40.386100        10.404900        6.6568800
       41.039300        10.373700        6.3425300
       41.703100        10.321000        6.0430400
       42.377600        10.258400        5.7405500
       43.063000        10.156700        5.4403400
       43.759500        10.015800        5.1558300
       44.467300        9.8106300        4.9260300
       45.186500        9.6493500        4.7666500
       45.917400        9.5125400        4.6124300
       46.660000        9.3800900        4.4632000
       47.414700        9.2481400        4.3262200
       48.181600        9.1240900        4.1968400
       48.960900        9.0055600        4.0713300
       49.752800        8.8969200        3.9443200
       50.557600        8.7754200        3.7959200
       51.375300        8.6352500        3.6531100
       52.206200        8.4769100        3.5156700
       53.050600        8.2885100        3.3967100
       53.908700        8.1120000        3.3210900
       54.780600        7.9467100        3.2471600
       55.666700        7.7840400        3.1748800
       56.567000        7.6175600        3.1042000
       57.482000        7.4429100        3.0447200
       58.411700        7.2749600        2.9932600
       59.356400        7.1089900        2.9408500
       60.316500        6.9387500        2.8883000
       61.292100        6.7633400        2.8366800
       62.283400        6.5818400        2.7859900
       63.290800        6.3929200        2.7362100
       64.314500        6.1949200        2.6873100
       65.354700        5.9849700        2.6392900
       66.411800        5.7550300        2.5990200
       67.485900        5.5249200        2.5773200
       68.577500        5.2923500        2.5558000
       69.686700        5.0529200        2.5344600
       70.813800        4.8037800        2.5133000
       71.959100        4.5430200        2.4923100
       73.123000        4.2691100        2.4715000
       74.305700        3.9818300        2.4490700
       75.507600        3.6732400        2.4232500
       76.728900        3.3408300        2.3977000
       77.969900        2.9806800        2.3724200
       79.231000        2.5811100        2.3474100
       80.512500        2.1513500        2.3575700
       81.814700        1.7093000        2.3746800
       83.138000        1.2416900        2.3919200
       84.482700       0.74009100        2.4092800
       85.849100       0.19606200        2.4267700
       87.237700      -0.40336800        2.4443900
       88.648700       -1.0704300        2.4860200
       90.082500       -1.7800200        2.5470400
       91.539500       -2.5527600        2.6095500
       93.020100       -3.4081400        2.6736000
       94.524600       -4.3686200        2.7392200
       96.053500       -5.4662200        2.8064500
       97.607100       -6.7634500        2.8753300
       99.185800       -8.3080400        3.0596100
       100.79000       -10.115400        3.3026900
       102.42000       -12.672700        3.7670300
       104.07700       -15.556400        4.9063700
       105.76000       -15.581400        7.9969400
       107.47100       -18.110200        6.2422700
       109.20900       -22.331700        9.0011800
       110.97500       -24.125700        11.542600
       112.77000       -28.629000        11.538800
       114.59400       -37.983200        13.790400
       116.44800       -49.600600        23.782500
       118.33100       -57.918900        43.398300
       120.24500       -53.956600        68.786700
       122.19000       -33.736900        93.115600
       124.16600       -9.0011800        98.093200
       126.17500        12.273600        95.033500
       128.21500        29.412200        87.089500
       130.28900        39.151700        75.296100
       132.39700        43.935200        65.672400
       134.53800        46.957600        58.262500
       136.71400        49.489600        52.045100
       138.92500        52.287600        45.789500
       141.17200        53.254100        38.877000
       143.45600        53.109800        32.599600
       145.77600        51.466900        27.009000
       148.13400        49.364800        23.321000
       150.53000        47.780900        20.387900
       152.96400        46.235600        17.644500
       155.43900        44.523100        15.270400
       157.95300        42.796300        13.554100
       160.50700        41.403400        12.180400
       163.10300        40.223600        10.945900
       165.74200        39.098200        9.6554800
       168.42200        37.916500        8.4930400
       171.14600        36.598200        7.5399400
       173.91500        35.450200        6.8852000
       176.72700        34.472900        6.2873500
       179.58600        33.543000        5.6909100
       182.49100        32.620400        5.1508700
       185.44200        31.713200        4.6821900
       188.44200        30.768200        4.2572100
       191.48900        29.857600        4.0376200
       194.58700        29.065100        3.8668600
       197.73400        28.310500        3.7033400
       200.93200        27.592400        3.6147800
       204.18200        26.898100        3.5360200
       207.48500        26.251200        3.5471100
       210.84000        25.634900        3.5590000
       214.25100        25.045700        3.6516100
       217.71600        24.527400        3.7756300
       221.23700        24.064700        3.9038600
       224.81600        23.634000        4.0364400
       228.45200        23.213000        4.1735300
       232.14700        22.817700        4.3578700
       235.90200        22.464200        4.5572000
       239.71700        22.140900        4.7656600
       243.59500        21.826100        4.9919000
       247.53500        21.553100        5.2559800
       251.53800        21.324400        5.5340500
       255.60700        21.138500        5.8268100
       259.74100        20.994200        6.1223700
       263.94200        20.892100        6.4304000
       268.21100        20.878300        6.7434800
       272.54900        20.889400        6.9893300
       276.95700        20.966300        7.2441500
       281.43700        21.042300        7.3666000
       285.98900        21.077900        7.4864000
       290.61500        21.109200        7.6081500
       295.31500        21.156600        7.6919600
       300.09200        21.126500        7.7652200
       304.94500        21.108200        7.9029900
       309.87800        21.111600        8.0432000
       314.89000        21.128400        8.1859100
       319.98300        21.158400        8.3311400
       325.15800        21.203000        8.4789400
       330.41800        21.265500        8.6293800
       335.76200        21.383000        8.7677100
       341.19200        21.487100        8.8515300
       346.71100        21.572800        8.9361600
       352.31900        21.660100        9.0216000
       358.01700        21.755100        9.1078500
       363.80800        21.874300        9.1949200
       369.69200        22.001100        9.2271700
       375.67200        22.105000        9.2445300
       381.74800        22.189900        9.2619200
       387.92200        22.267200        9.2793400
       394.19700        22.338600        9.2967900
       400.57300        22.405600        9.3142800
       407.05200        22.469100        9.3317900
       413.63500        22.529600        9.3493400
       420.32600        22.587700        9.3678800
       427.12400        22.645100        9.3870200
       434.03200        22.702300        9.4061800
       441.05200        22.760200        9.4253900
       448.18600        22.820100        9.4446400
       455.43500        22.883600        9.4639300
       462.80200        22.980700        9.4722000
       470.28700        23.056200        9.4355800
       477.89400        23.103800        9.3990900
       485.62300        23.139500        9.3627500
       493.47800        23.165000        9.3265400
       501.45900        23.181500        9.2904800
       509.57000        23.189800        9.2545500
       517.81200        23.190400        9.2187700
       526.18700        23.183800        9.1831200
       534.69800        23.170500        9.1476200
       543.34600        23.161500        9.1116300
       552.13400        23.138200        9.0522200
       561.06500        23.093800        8.9931800
       570.13900        23.034100        8.9345300
       579.36100        22.959900        8.8762600
       588.73200        22.871100        8.8183800
       598.25400        22.767500        8.7608700
       607.93000        22.648400        8.7037300
       617.76300        22.513400        8.6469700
       627.75500        22.361900        8.5905800
       637.90800        22.193800        8.5345600
       648.22600        22.009700        8.4789000
       658.71100        21.813900        8.4236100
       669.36500        21.639100        8.3566400
       680.19100        21.398000        8.1946800
       691.19300        21.079300        8.0358500
       702.37200        20.693400        7.8801000
       713.73300        20.241500        7.7273800
       725.27700        19.720900        7.5776100
       737.00800        19.118700        7.4236900
       748.92800        18.417100        7.2702600
       761.04200        17.599800        7.1199900
       773.35100        16.643000        6.9728200
       785.85900        15.511600        6.8287100
       798.57000        14.154100        6.6875600
       811.48600        12.491100        6.5493400
       824.61100        10.391600        6.4139700
       837.94900        7.6176200        6.2814000
       851.50200        3.6655300        6.1515700
       865.27400       -2.8670500        6.0244200
       879.26900       -20.288000        5.8999100
       883.70000       -69.407000        5.8614300
       883.90000       -69.376700        46.643900
       893.49100       -9.2642600        46.080400
       907.94300        3.3158600        45.255300
       922.62800        10.053400        44.444900
       937.55100        14.744600        43.649000
       952.71500        18.366100        42.867400
       968.12400        21.322500        42.099800
       983.78300        23.821700        41.345900
       999.69500        25.985900        40.605500
       1015.8600        27.895600        39.878400
       1032.2900        29.638400        39.146700
       1048.9900        31.083600        38.372300
       1065.9600        32.395700        37.737900
       1083.2000        33.650500        37.114000
       1100.7200        34.815200        36.500500
       1118.5200        35.901300        35.897000
       1136.6100        36.917700        35.303600
       1155.0000        37.872600        34.719900
       1173.6800        38.773300        34.145900
       1192.6600        39.626400        33.581400
       1211.9500        40.438800        33.026200
       1231.5500        41.217500        32.480200
       1251.4700        41.971100        31.943300
       1271.7200        42.711600        31.415200
       1292.2900        43.397300        30.895800
       1313.1900        44.714500        30.385000
       1334.4300        44.943100        28.565100
       1356.0100        44.851800        28.239000
       1377.9400        45.103700        27.916400
       1400.2300        45.450200        27.597500
       1422.8800        45.846600        27.282400
       1445.8900        46.290300        26.970900
       1469.2800        46.771500        26.640100
       1493.0400        47.324200        26.278700
       1517.1900        47.847500        25.779600
       1541.7300        48.280900        25.270400
       1566.6700        48.671600        24.771400
       1592.0100        49.031800        24.281800
       1617.7600        49.367300        23.802000
       1643.9200        49.682700        23.332100
       1670.5100        49.980800        22.871000
       1697.5300        50.264500        22.419100
       1724.9900        50.540600        21.976100
       1752.8900        50.803600        21.524800
       1781.2400        51.047900        21.076900
       1810.0500        51.271500        20.634000
       1839.3200        51.478500        20.200300
       1869.0700        51.671300        19.775900
       1899.3000        51.851800        19.360500
       1930.0200        52.021000        18.953600
       1961.2400        52.180300        18.555200
       1992.9600        52.327000        18.165100
       2025.2000        52.473100        17.791700
       2057.9500        52.613900        17.409100
       2091.2400        52.741800        17.033100
       2125.0600        52.859400        16.663700
       2159.4300        52.967800        16.300400
       2194.3600        53.067700        15.943900
       2229.8500        53.159500        15.593700
       2265.9200        53.243500        15.250000
       2302.5700        53.320500        14.913000
       2339.8100        53.389900        14.581300
       2377.6600        53.452700        14.256900
       2416.1100        53.509400        13.938400
       2455.1900        53.560000        13.625900
       2494.9000        53.604200        13.319200
       2535.2600        53.642900        13.019100
       2576.2600        53.676400        12.724500
       2617.9300        53.704500        12.435700
       2660.2700        53.727500        12.152400
       2703.3000        53.745200        11.874600
       2747.0300        53.758300        11.603000
       2791.4600        53.767100        11.336500
       2836.6100        53.770900        11.075100
       2882.4900        53.770300        10.819600
       2929.1100        53.765800        10.568900
       2976.4800        53.757000        10.323300
       3024.6300        53.744000        10.082900
       3073.5500        53.726900        9.8473200
       3123.2600        53.706000        9.6166600
       3173.7800        53.681100        9.3907700
       3225.1100        53.652300        9.1696500
       3277.2700        53.619700        8.9531700
       3330.2800        53.583300        8.7410700
       3384.1500        53.543000        8.5334300
       3438.8800        53.498700        8.3301800
       3494.5000        53.450600        8.1312400
       3551.0200        53.398500        7.9364700
       3608.4600        53.342200        7.7457600
       3666.8200        53.281800        7.5591600
       3726.1300        53.217000        7.3764600
       3786.4000        53.147600        7.1977100
       3847.6400        53.073700        7.0227200
       3909.8700        52.994700        6.8513700
       3973.1100        52.910400        6.6837700
       4037.3800        52.820700        6.5197400
       4102.6800        52.725000        6.3591400
       4169.0300        52.622700        6.2019900
       4236.4600        52.513400        6.0483000
       4304.9800        52.396600        5.8978200
       4374.6200        52.271300        5.7504500
       4445.3700        52.136400        5.6063400
       4517.2700        51.991100        5.4653000
       4590.3300        51.833800        5.3273000
       4664.5800        51.662800        5.1922400
       4740.0300        51.476100        5.0601100
       4816.6900        51.270800        4.9307500
