;  Atomic scattering factors for Cl.
;   
;  Concatenation of data from CXRO <http://www-cxro.lbl.gov>
;  and LLNL <http://www-phys.llnl.gov/V_Div/scattering/asf.html>
;  
;  E (eV) f1 f2
;---------------
       10.000000       -9999.0000        1.4693800
       10.161700       -9999.0000        1.6922000
       10.326100       -9999.0000        1.9488000
       10.493100       -9999.0000        2.2443200
       10.662800       -9999.0000        2.5130300
       10.835300       -9999.0000        2.7315300
       11.010600       -9999.0000        2.9554900
       11.188600       -9999.0000        3.1941600
       11.369600       -9999.0000        3.4888100
       11.553500       -9999.0000        3.8761800
       11.740400       -9999.0000        4.1441600
       11.930300       -9999.0000        4.4140700
       12.123200       -9999.0000        4.7015600
       12.319300       -9999.0000        4.9158200
       12.518600       -9999.0000        5.1308700
       12.721000       -9999.0000        5.3553300
       12.926800       -9999.0000        5.5720400
       13.135900       -9999.0000        5.7835300
       13.348300       -9999.0000        6.0030400
       13.564200       -9999.0000        6.2254000
       13.783600       -9999.0000        6.4256300
       14.006600       -9999.0000        6.6322900
       14.233100       -9999.0000        6.8456100
       14.463300       -9999.0000        7.0652300
       14.697300       -9999.0000        7.2526800
       14.935000       -9999.0000        7.4451000
       15.176500       -9999.0000        7.6426400
       15.422000       -9999.0000        7.8275000
       15.671400       -9999.0000        7.9623800
       15.924900       -9999.0000        8.0995800
       16.182500       -9999.0000        8.2391400
       16.444200       -9999.0000        8.3768300
       16.710200       -9999.0000        8.5146100
       16.980500       -9999.0000        8.6546600
       17.255100       -9999.0000        8.7970100
       17.534200       -9999.0000        8.9417000
       17.817800       -9999.0000        9.0887700
       18.106000       -9999.0000        9.2382700
       18.398900       -9999.0000        9.3902300
       18.696400       -9999.0000        9.5446700
       18.998800       -9999.0000        9.7016700
       19.306100       -9999.0000        9.8612400
       19.618400       -9999.0000        9.9242100
       19.935700       -9999.0000        9.8907600
       20.258200       -9999.0000        9.8574200
       20.585800       -9999.0000        9.8242000
       20.918800       -9999.0000        9.7910800
       21.257100       -9999.0000        9.7580700
       21.600900       -9999.0000        9.7251800
       21.950300       -9999.0000        9.6924000
       22.305300       -9999.0000        9.6597300
       22.666100       -9999.0000        9.6271600
       23.032700       -9999.0000        9.5762300
       23.405300       -9999.0000        9.3384200
       23.783800       -9999.0000        9.1065300
       24.168500       -9999.0000        8.8803800
       24.559400       -9999.0000        8.6598600
       24.956600       -9999.0000        8.4448100
       25.360300       -9999.0000        8.1317800
       25.770500       -9999.0000        7.7695600
       26.187300       -9999.0000        7.4234500
       26.610900       -9999.0000        7.0927700
       27.041300       -9999.0000        6.7768200
       27.478600       -9999.0000        6.4749300
       27.923100       -9999.0000        6.1865000
       28.374700       -9999.0000        5.9109100
       28.833700       -9999.0000        5.5815600
       29.300000        9.9441100        5.2052200
       29.773900        9.9926500        4.8542500
       30.255500        10.017800        4.5269400
       30.744900        10.032800        4.2217100
       31.242100        10.054400        3.9370500
       31.747500        10.125300        3.6600700
       32.260900        10.143800        3.2201200
       32.782700        10.058700        2.8330500
       33.313000        9.9249800        2.4925100
       33.851800        9.7678300        2.1929000
       34.399300        9.5965400        1.9293000
       34.955700        9.4167500        1.7006100
       35.521100        9.2383900        1.5012000
       36.095600        9.0622400        1.3251700
       36.679400        8.8904200        1.1697900
       37.272700        8.7297300        1.0326200
       37.875500        8.5827700       0.88257200
       38.488200        8.4051000       0.73960000
       39.110700        8.2139600       0.61979300
       39.743200        8.0165800       0.53022700
       40.386100        7.8289100       0.46021100
       41.039300        7.6323200       0.40670700
       41.703100        7.4570000       0.40313200
       42.377600        7.3084200       0.39959000
       43.063000        7.1737900       0.39451800
       43.759500        7.0404300       0.38876600
       44.467300        6.9137000       0.40371500
       45.186500        6.8012500       0.41989900
       45.917400        6.6975400       0.43673100
       46.660000        6.5976000       0.45676500
       47.414700        6.5063500       0.48214800
       48.181600        6.4223700       0.50894100
       48.960900        6.3445200       0.53722300
       49.752800        6.2723200       0.56707700
       50.557600        6.2058600       0.59859100
       51.375300        6.1466600       0.63088200
       52.206200        6.0907300       0.65923700
       53.050600        6.0366700       0.68886600
       53.908700        5.9852000       0.71982600
       54.780600        5.9366900       0.75217700
       55.666700        5.8912600       0.78598400
       56.567000        5.8490900       0.82130900
       57.482000        5.8104100       0.85822200
       58.411700        5.7757600       0.89679400
       59.356400        5.7463800       0.93709900
       60.316500        5.7249200       0.97414600
       61.292100        5.7020600        1.0075100
       62.283400        5.6801400        1.0420200
       63.290800        5.6602600        1.0777100
       64.314500        5.6430700        1.1146300
       65.354700        5.6292000        1.1528100
       66.411800        5.6195700        1.1922900
       67.485900        5.6160000        1.2331300
       68.577500        5.6246900        1.2753700
       69.686700        5.6356100        1.2938800
       70.813800        5.6400200        1.3126100
       71.959100        5.6415700        1.3316000
       73.123000        5.6427900        1.3508800
       74.305700        5.6445100        1.3704200
       75.507600        5.6476000        1.3902600
       76.728900        5.6537000        1.4103800
       77.969900        5.6671500        1.4245400
       79.231000        5.6739500        1.4308800
       80.512500        5.6773900        1.4372600
       81.814700        5.6790700        1.4436600
       83.138000        5.6796100        1.4500900
       84.482700        5.6793900        1.4565500
       85.849100        5.6788300        1.4630400
       87.237700        5.6788400        1.4695600
       88.648700        5.6791800        1.4731100
       90.082500        5.6768500        1.4752500
       91.539500        5.6728300        1.4773900
       93.020100        5.6675600        1.4795300
       94.524600        5.6612200        1.4816800
       96.053500        5.6539300        1.4838300
       97.607100        5.6457900        1.4859800
       99.185800        5.6369200        1.4881400
       100.79000        5.6275200        1.4903000
       102.42000        5.6179600        1.4924600
       104.07700        5.6097600        1.4946200
       105.76000        5.6026900        1.4903900
       107.47100        5.5901000        1.4832800
       109.20900        5.5732100        1.4762000
       110.97500        5.5534000        1.4691500
       112.77000        5.5308400        1.4621400
       114.59400        5.5055800        1.4551600
       116.44800        5.4776000        1.4482100
       118.33100        5.4468600        1.4413000
       120.24500        5.4132700        1.4344200
       122.19000        5.3767100        1.4275800
       124.16600        5.3370600        1.4207600
       126.17500        5.2941600        1.4139800
       128.21500        5.2478700        1.4072300
       130.28900        5.1981500        1.4005100
       132.39700        5.1458600        1.3929600
       134.53800        5.0878700        1.3837000
       136.71400        5.0240600        1.3744900
       138.92500        4.9545900        1.3653500
       141.17200        4.8790700        1.3562600
       143.45600        4.7970400        1.3472400
       145.77600        4.7079200        1.3382700
       148.13400        4.6110500        1.3293700
       150.53000        4.5056900        1.3205300
       152.96400        4.3910800        1.3117400
       155.43900        4.2677100        1.3030100
       157.95300        4.1312200        1.2892100
       160.50700        3.9778600        1.2752000
       163.10300        3.8066000        1.2613400
       165.74200        3.6150600        1.2476300
       168.42200        3.3998900        1.2340700
       171.14600        3.1566200        1.2206600
       173.91500        2.8792900        1.2074100
       176.72700        2.5597100        1.1942900
       179.58600        2.1862400        1.1813200
       182.49100        1.7416500        1.1684900
       185.44200        1.1987500        1.1558000
       188.44200       0.51095200        1.1432500
       191.48900      -0.41238600        1.1308300
       194.58700       -1.7890200        1.1185500
       197.73400       -4.4456700        1.1064000
       199.90000       -13.845200        1.0982200
       200.10000       -13.868000        10.468200
       200.93200       -7.2644400        10.520900
       204.18200       -2.8610700        10.727300
       207.48500       -1.1173900        10.937800
       210.84000      0.054250400        11.152400
       214.25100        1.0100500        11.371200
       217.71600        1.9145400        11.495000
       221.23700        2.6519200        11.517900
       224.81600        3.2630800        11.540900
       228.45200        3.8079200        11.563900
       232.14700        4.3039100        11.586800
       235.90200        4.7633400        11.609900
       239.71700        5.1948900        11.633000
       243.59500        5.6050200        11.656300
       247.53500        5.9988600        11.679500
       251.53800        6.3806900        11.702700
       255.60700        6.7543300        11.726000
       259.74100        7.1237500        11.749400
       263.94200        7.4935100        11.772800
       268.21100        7.8696100        11.796200
       272.54900        8.2713300        11.819700
       276.95700        8.7166500        11.792500
       281.43700        9.1288600        11.701500
       285.98900        9.5025900        11.571200
       290.61500        9.8348600        11.436700
       295.31500        10.141000        11.303800
       300.09200        10.427800        11.172600
       304.94500        10.698900        11.042800
       309.87800        10.956600        10.914500
       314.89000        11.202900        10.787700
       319.98300        11.439000        10.662400
       325.15800        11.666400        10.538500
       330.41800        11.886000        10.416200
       335.76200        12.098900        10.295200
       341.19200        12.305800        10.175600
       346.71100        12.507600        10.057400
       352.31900        12.705000        9.9405100
       358.01700        12.899300        9.8251400
       363.80800        13.091700        9.7110200
       369.69200        13.283600        9.5981600
       375.67200        13.477100        9.4865200
       381.74800        13.676700        9.3763200
       387.92200        13.915800        9.2435200
       394.19700        14.118000        9.0602700
       400.57300        14.282900        8.8885100
       407.05200        14.438200        8.7230600
       413.63500        14.589600        8.5607000
       420.32600        14.733200        8.3939900
       427.12400        14.869800        8.2274700
       434.03200        14.995300        8.0582200
       441.05200        15.110500        7.8923400
       448.18600        15.218900        7.7294800
       455.43500        15.320400        7.5683800
       462.80200        15.415500        7.4100700
       470.28700        15.505000        7.2547900
       477.89400        15.590700        7.1027100
       485.62300        15.672000        6.9501100
       493.47800        15.747100        6.7994000
       501.45900        15.817100        6.6519300
       509.57000        15.882800        6.5065600
       517.81200        15.944600        6.3635700
       526.18700        16.001900        6.2227000
       534.69800        16.055300        6.0845100
       543.34600        16.105600        5.9488900
       552.13400        16.151800        5.8148100
       561.06500        16.194300        5.6838400
       570.13900        16.234400        5.5556900
       579.36100        16.271300        5.4292000
       588.73200        16.305100        5.3056200
       598.25400        16.336600        5.1847400
       607.93000        16.365400        5.0658300
       617.76300        16.391900        4.9495400
       627.75500        16.416500        4.8357600
       637.90800        16.439000        4.7237300
       648.22600        16.459200        4.6141200
       658.71100        16.477900        4.5068800
       669.36500        16.494600        4.4011500
       680.19100        16.509300        4.2978000
       691.19300        16.522700        4.1966700
       702.37200        16.534300        4.0969400
       713.73300        16.543900        3.9995100
       725.27700        16.552000        3.9043500
       737.00800        16.558900        3.8113900
       748.92800        16.564700        3.7202100
       761.04200        16.569200        3.6308500
       773.35100        16.572400        3.5431500
       785.85900        16.574200        3.4574800
       798.57000        16.575100        3.3737800
       811.48600        16.574900        3.2917200
       824.61100        16.573800        3.2113200
       837.94900        16.571200        3.1325500
       851.50200        16.567800        3.0562800
       865.27400        16.564100        2.9815400
       879.26900        16.559800        2.9083300
       893.49100        16.554300        2.8361000
       907.94300        16.547800        2.7659100
       922.62800        16.541400        2.6977100
       937.55100        16.534200        2.6297800
       952.71500        16.525700        2.5634700
       968.12400        16.516000        2.4987600
       983.78300        16.506100        2.4366300
       999.69500        16.496200        2.3754400
       1015.8600        16.485300        2.3151800
       1032.2900        16.473800        2.2565700
       1048.9900        16.461800        2.1994100
       1065.9600        16.449300        2.1436700
       1083.2000        16.436500        2.0893700
       1100.7200        16.423400        2.0362400
       1118.5200        16.409800        1.9841800
       1136.6100        16.395800        1.9332500
       1155.0000        16.381200        1.8836400
       1173.6800        16.366200        1.8353200
       1192.6600        16.351100        1.7881700
       1211.9500        16.335700        1.7420000
       1231.5500        16.319700        1.6967000
       1251.4700        16.303200        1.6525900
       1271.7200        16.286300        1.6096400
       1292.2900        16.269200        1.5678100
       1313.1900        16.251600        1.5268300
       1334.4300        16.233600        1.4869000
       1356.0100        16.215200        1.4480200
       1377.9400        16.196400        1.4101700
       1400.2300        16.177400        1.3732400
       1422.8800        16.157800        1.3371600
       1445.8900        16.137800        1.3020700
       1469.2800        16.117300        1.2678900
       1493.0400        16.096000        1.2345800
       1517.1900        16.074300        1.2029800
       1541.7300        16.052600        1.1723400
       1566.6700        16.030700        1.1425500
       1592.0100        16.008600        1.1135200
       1617.7600        15.986200        1.0852200
       1643.9200        15.963300        1.0576500
       1670.5100        15.940100        1.0307700
       1697.5300        15.916300        1.0045800
       1724.9900        15.892200       0.97905600
       1752.8900        15.867500       0.95379100
       1781.2400        15.842000       0.92905000
       1810.0500        15.815600       0.90485600
       1839.3200        15.788300       0.88129500
       1869.0700        15.760000       0.85834800
       1899.3000        15.730700       0.83600100
       1930.0200        15.700400       0.81423200
       1961.2400        15.668800       0.79303000
       1992.9600        15.640000       0.77237600
       2025.2000        15.604500       0.74274400
       2057.9500        15.563100       0.72282700
       2091.2400        15.521500       0.70363400
       2125.0600        15.478400       0.68489400
       2159.4300        15.432900       0.66658600
       2194.3600        15.384500       0.64870200
       2229.8500        15.332600       0.63121500
       2265.9200        15.276600       0.61414100
       2302.5700        15.215700       0.59745600
       2339.8100        15.149100       0.58114600
       2377.6600        15.075600       0.56520000
       2416.1100        14.993600       0.54962200
       2455.1900        14.901000       0.53441100
       2494.9000        14.795200       0.51954100
       2535.2600        14.671900       0.50500400
       2576.2600        14.525300       0.49079700
       2617.9300        14.345500       0.47690200
       2660.2700        14.115600       0.46334100
       2703.3000        13.802000       0.45006200
       2747.0300        13.321900       0.43709200
       2791.4600        12.348400       0.42440900
       2822.3000        5.6810200       0.41593700
       2822.5000        5.6823600        4.1150700
       2836.6100        11.549900        4.0854600
       2882.4900        13.328600        3.9916000
       2929.1100        14.062000        3.8990100
       2976.4800        14.538700        3.8079500
       3024.6300        14.894000        3.7184200
       3073.5500        15.177200        3.6300800
       3123.2600        15.411900        3.5432700
       3173.7800        15.611700        3.4579000
       3225.1100        15.784900        3.3740500
       3277.2700        15.937100        3.2916500
       3330.2800        16.072200        3.2106500
       3384.1500        16.193000        3.1312400
       3438.8800        16.301800        3.0533700
       3494.5000        16.400200        2.9770100
       3551.0200        16.489600        2.9021500
       3608.4600        16.571100        2.8287200
       3666.8200        16.645400        2.7567800
       3726.1300        16.713500        2.6863400
       3786.4000        16.776000        2.6173500
       3847.6400        16.833300        2.5498100
       3909.8700        16.885900        2.4837200
       3973.1100        16.934300        2.4190700
       4037.3800        16.978900        2.3558000
       4102.6800        17.019900        2.2939600
       4169.0300        17.057500        2.2334800
       4236.4600        17.092200        2.1744000
       4304.9800        17.124100        2.1166400
       4374.6200        17.153400        2.0602000
       4445.3700        17.180200        2.0050800
       4517.2700        17.204800        1.9512500
       4590.3300        17.227400        1.8987100
       4664.5800        17.248100        1.8473800
