;  Atomic scattering factors for Co.
;   
;  Concatenation of data from CXRO <http://www-cxro.lbl.gov>
;  and LLNL <http://www-phys.llnl.gov/V_Div/scattering/asf.html>
;  
;  E (eV) f1 f2
;---------------
       10.000000       -9999.0000        1.4207100
       10.161700       -9999.0000        1.4592500
       10.326100       -9999.0000        1.4988400
       10.493100       -9999.0000        1.5394900
       10.662800       -9999.0000        1.5812500
       10.835300       -9999.0000        1.6241500
       11.010600       -9999.0000        1.6682000
       11.188600       -9999.0000        1.7134500
       11.369600       -9999.0000        1.7599300
       11.553500       -9999.0000        1.8076700
       11.740400       -9999.0000        1.8567100
       11.930300       -9999.0000        1.9070700
       12.123200       -9999.0000        1.9468200
       12.319300       -9999.0000        1.9860000
       12.518600       -9999.0000        2.0259600
       12.721000       -9999.0000        2.0667400
       12.926800       -9999.0000        2.1083300
       13.135900       -9999.0000        2.1507600
       13.348300       -9999.0000        2.1940400
       13.564200       -9999.0000        2.2381900
       13.783600       -9999.0000        2.2832300
       14.006600       -9999.0000        2.3291800
       14.233100       -9999.0000        2.3760500
       14.463300       -9999.0000        2.4237100
       14.697300       -9999.0000        2.4719900
       14.935000       -9999.0000        2.5212300
       15.176500       -9999.0000        2.5714600
       15.422000       -9999.0000        2.6226800
       15.671400       -9999.0000        2.6749200
       15.924900       -9999.0000        2.7282100
       16.182500       -9999.0000        2.7825500
       16.444200       -9999.0000        2.8379800
       16.710200       -9999.0000        2.8945200
       16.980500       -9999.0000        2.9521700
       17.255100       -9999.0000        3.0020300
       17.534200       -9999.0000        3.0445500
       17.817800       -9999.0000        3.0876800
       18.106000       -9999.0000        3.1314200
       18.398900       -9999.0000        3.1757800
       18.696400       -9999.0000        3.2207600
       18.998800       -9999.0000        3.2663900
       19.306100       -9999.0000        3.3126600
       19.618400       -9999.0000        3.3595800
       19.935700       -9999.0000        3.4070000
       20.258200       -9999.0000        3.4516600
       20.585800       -9999.0000        3.4969000
       20.918800       -9999.0000        3.5427400
       21.257100       -9999.0000        3.5891700
       21.600900       -9999.0000        3.6362200
       21.950300       -9999.0000        3.6838800
       22.305300       -9999.0000        3.7321700
       22.666100       -9999.0000        3.7810900
       23.032700       -9999.0000        3.8306500
       23.405300       -9999.0000        3.8808600
       23.783800       -9999.0000        3.9317300
       24.168500       -9999.0000        3.9832700
       24.559400       -9999.0000        4.0272100
       24.956600       -9999.0000        4.0643500
       25.360300       -9999.0000        4.1018300
       25.770500       -9999.0000        4.1396600
       26.187300       -9999.0000        4.1778400
       26.610900       -9999.0000        4.2163700
       27.041300       -9999.0000        4.2552600
       27.478600       -9999.0000        4.2945000
       27.923100       -9999.0000        4.3341100
       28.374700       -9999.0000        4.3636600
       28.833700       -9999.0000        4.3585700
       29.300000        3.9825100        4.3534800
       29.773900        4.0508100        4.3484000
       30.255500        4.1143800        4.3433300
       30.744900        4.1744200        4.3382600
       31.242100        4.2317800        4.3332000
       31.747500        4.2872300        4.3281400
       32.260900        4.3416200        4.3230800
       32.782700        4.3981900        4.3180400
       33.313000        4.4615900        4.3020000
       33.851800        4.5105700        4.2771000
       34.399300        4.5510700        4.2523400
       34.955700        4.5857900        4.2277300
       35.521100        4.6151600        4.2032600
       36.095600        4.6392500        4.1789300
       36.679400        4.6576500        4.1547300
       37.272700        4.6684000        4.1306900
       37.875500        4.6744600        4.1159200
       38.488200        4.6806000        4.1018100
       39.110700        4.6846800        4.0877500
       39.743200        4.6855600        4.0737400
       40.386100        4.6827600        4.0597700
       41.039300        4.6758500        4.0458600
       41.703100        4.6643400        4.0319900
       42.377600        4.6478000        4.0185300
       43.063000        4.6261100        4.0052800
       43.759500        4.5985500        3.9920600
       44.467300        4.5644000        3.9788900
       45.186500        4.5228000        3.9657600
       45.917400        4.4727100        3.9526800
       46.660000        4.4127900        3.9396800
       47.414700        4.3417700        3.9272500
       48.181600        4.2578200        3.9148700
       48.960900        4.1582000        3.9025200
       49.752800        4.0387000        3.8902100
       50.557600        3.8920400        3.8779400
       51.375300        3.7136100        3.8793000
       52.206200        3.5045500        3.8854700
       53.050600        3.2314500        3.8986900
       53.908700        2.9245600        3.9906200
       54.780600        2.5787100        4.0847300
       55.666700        2.1200700        4.2166600
       56.567000        1.5078100        4.4034400
       57.482000       0.48104400        5.0465000
       58.411700      -0.13550000        6.2686700
       59.356400      -0.34801000        7.7868300
       60.316500       0.17493400        9.6727300
       61.292100        1.7856400        10.653700
       62.283400        3.0503700        11.049100
       63.290800        4.1788700        10.944000
       64.314500        4.9412000        10.695000
       65.354700        5.4726200        10.472200
       66.411800        5.9204700        10.275700
       67.485900        6.3013800        10.082800
       68.577500        6.6230700        9.8934900
       69.686700        6.8911400        9.7077700
       70.813800        7.0975700        9.5420200
       71.959100        7.2910700        9.4095800
       73.123000        7.4663200        9.2789900
       74.305700        7.6175600        9.1502000
       75.507600        7.7353300        9.0232100
       76.728900        7.7870700        8.8998600
       77.969900        7.8412300        8.8983900
       79.231000        7.9343000        8.8969200
       80.512500        8.0408900        8.8954500
       81.814700        8.1536400        8.8939700
       83.138000        8.2694500        8.8925100
       84.482700        8.3865600        8.8910300
       85.849100        8.5038000        8.8895700
       87.237700        8.6201300        8.8881000
       88.648700        8.7339100        8.8866300
       90.082500        8.8400800        8.8851600
       91.539500        8.9430200        8.9018500
       93.020100        9.0573200        8.9245600
       94.524600        9.1780200        8.9473100
       96.053500        9.3033600        8.9701400
       97.607100        9.4330200        8.9930100
       99.185800        9.5672700        9.0159500
       100.79000        9.7071500        9.0389400
       102.42000        9.8555800        9.0619900
       104.07700        10.024400        9.0761700
       105.76000        10.182100        9.0598400
       107.47100        10.328900        9.0435300
       109.20900        10.469600        9.0272600
       110.97500        10.607000        9.0110200
       112.77000        10.741900        8.9947900
       114.59400        10.875100        8.9786000
       116.44800        11.006800        8.9624500
       118.33100        11.137500        8.9463300
       120.24500        11.267400        8.9302200
       122.19000        11.396700        8.9141500
       124.16600        11.525600        8.8981100
       126.17500        11.653300        8.8821000
       128.21500        11.768900        8.8766000
       130.28900        11.924300        8.8879100
       132.39700        12.079100        8.8511800
       134.53800        12.220900        8.8145300
       136.71400        12.355300        8.7780400
       138.92500        12.486200        8.7417200
       141.17200        12.614700        8.7055900
       143.45600        12.741600        8.6696300
       145.77600        12.867400        8.6337900
       148.13400        12.992600        8.5980400
       150.53000        13.117500        8.5624000
       152.96400        13.243000        8.5271000
       155.43900        13.370500        8.4918800
       157.95300        13.503600        8.4567700
       160.50700        13.637700        8.4091100
       163.10300        13.772300        8.3560000
       165.74200        13.897300        8.2958400
       168.42200        14.016700        8.2360200
       171.14600        14.132300        8.1766300
       173.91500        14.245300        8.1176700
       176.72700        14.356200        8.0592100
       179.58600        14.465700        8.0011800
       182.49100        14.574500        7.9435700
       185.44200        14.683500        7.8863200
       188.44200        14.794700        7.8275400
       191.48900        14.908600        7.7651600
       194.58700        15.016200        7.6930600
       197.73400        15.118300        7.6217200
       200.93200        15.217000        7.5511000
       204.18200        15.313600        7.4810000
       207.48500        15.409800        7.4106600
       210.84000        15.506000        7.3398700
       214.25100        15.598800        7.2618300
       217.71600        15.686400        7.1842300
       221.23700        15.770000        7.1074700
       224.81600        15.851000        7.0317200
       228.45200        15.930000        6.9567000
       232.14700        16.007300        6.8823600
       235.90200        16.084000        6.8088900
       239.71700        16.161400        6.7334600
       243.59500        16.235400        6.6555000
       247.53500        16.305900        6.5758700
       251.53800        16.372500        6.4969000
       255.60700        16.436400        6.4189100
       259.74100        16.498200        6.3417500
       263.94200        16.558400        6.2655100
       268.21100        16.619100        6.1901600
       272.54900        16.677900        6.1107000
       276.95700        16.732700        6.0307000
       281.43700        16.783900        5.9511900
       285.98900        16.832300        5.8725200
       290.61500        16.878200        5.7948700
       295.31500        16.922700        5.7183100
       300.09200        16.965500        5.6412800
       304.94500        17.006800        5.5639400
       309.87800        17.044600        5.4860500
       314.89000        17.079300        5.4090400
       319.98300        17.111500        5.3331600
       325.15800        17.142500        5.2585200
       330.41800        17.171500        5.1829800
       335.76200        17.198200        5.1076200
       341.19200        17.221800        5.0322900
       346.71100        17.242400        4.9579300
       352.31900        17.260600        4.8846400
       358.01700        17.277400        4.8124300
       363.80800        17.291900        4.7391300
       369.69200        17.303100        4.6664200
       375.67200        17.311300        4.5945800
       381.74800        17.317000        4.5238500
       387.92200        17.320700        4.4537400
       394.19700        17.321500        4.3836700
       400.57300        17.319400        4.3139800
       407.05200        17.314000        4.2451000
       413.63500        17.305900        4.1773300
       420.32600        17.294900        4.1096400
       427.12400        17.280900        4.0426300
       434.03200        17.263100        3.9759000
       441.05200        17.241700        3.9102300
       448.18600        17.217200        3.8454600
       455.43500        17.188900        3.7809000
       462.80200        17.156500        3.7171700
       470.28700        17.120000        3.6543800
       477.89400        17.080000        3.5926200
       485.62300        17.035500        3.5300900
       493.47800        16.985200        3.4679700
       501.45900        16.929100        3.4069500
       509.57000        16.867300        3.3470100
       517.81200        16.799000        3.2882800
       526.18700        16.724300        3.2311500
       534.69800        16.643100        3.1761200
       543.34600        16.555800        3.1225700
       552.13400        16.462200        3.0699800
       561.06500        16.360700        3.0155800
       570.13900        16.247800        2.9611200
       579.36100        16.123600        2.9092700
       588.73200        15.988100        2.8588200
       598.25400        15.840100        2.8095400
       607.93000        15.677900        2.7610600
       617.76300        15.499400        2.7134600
       627.75500        15.302800        2.6665600
       637.90800        15.084700        2.6184800
       648.22600        14.839600        2.5683800
       658.71100        14.559600        2.5173700
       669.36500        14.237600        2.4674100
       680.19100        13.865100        2.4238100
       691.19300        13.435200        2.3850600
       702.37200        12.932600        2.3477900
       713.73300        12.325900        2.3069800
       725.27700        11.564700        2.2640600
       737.00800        10.567700        2.2218900
       748.92800        9.1632300        2.1805100
       761.04200        6.8840300        2.1398900
       773.35100        1.2009200        2.1000400
       778.00000       -16.669700        2.0853400
       778.20000       -16.657400        16.755400
       785.85900        3.9005100        16.566500
       798.57000        8.6772600        16.261800
       811.48600        11.142400        15.962800
       824.61100        12.829000        15.669200
       837.94900        14.111500        15.380900
       851.50200        15.144700        15.098800
       865.27400        16.001900        14.799100
       879.26900        16.697500        14.485000
       893.49100        17.123600        14.165000
       907.94300        17.357000        14.128100
       922.62800        17.803400        14.397900
       937.55100        18.511800        14.672800
       952.71500        19.468300        14.630300
       968.12400        20.257100        14.281400
       983.78300        20.818000        13.941200
       999.69500        21.302200        13.612200
       1015.8600        21.715100        13.294300
       1032.2900        22.092000        13.013600
       1048.9900        22.450600        12.734000
       1065.9600        22.780200        12.454800
       1083.2000        23.082200        12.181900
       1100.7200        23.361700        11.914900
       1118.5200        23.621400        11.653900
       1136.6100        23.863100        11.398400
       1155.0000        24.088500        11.148600
       1173.6800        24.299400        10.904300
       1192.6600        24.497200        10.665300
       1211.9500        24.683000        10.431500
       1231.5500        24.859800        10.202900
       1251.4700        25.027000        9.9764100
       1271.7200        25.185100        9.7516800
       1292.2900        25.331300        9.5280800
       1313.1900        25.465700        9.3097500
       1334.4300        25.591000        9.0964000
       1356.0100        25.708000        8.8878700
       1377.9400        25.817400        8.6841500
       1400.2300        25.920000        8.4851100
       1422.8800        26.016400        8.2906500
       1445.8900        26.107500        8.1005900
       1469.2800        26.193800        7.9142200
       1493.0400        26.276800        7.7311200
       1517.1900        26.353900        7.5477500
       1541.7300        26.423600        7.3680800
       1566.6700        26.487700        7.1926100
       1592.0100        26.546900        7.0214200
       1617.7600        26.601900        6.8543000
       1643.9200        26.653000        6.6911800
       1670.5100        26.700900        6.5320100
       1697.5300        26.746200        6.3765900
       1724.9900        26.790800        6.2248000
       1752.8900        26.832400        6.0711900
       1781.2400        26.869400        5.9195900
       1810.0500        26.901000        5.7704900
       1839.3200        26.928600        5.6251700
       1869.0700        26.952800        5.4834700
       1899.3000        26.974100        5.3452800
       1930.0200        26.992600        5.2105800
       1961.2400        27.008900        5.0793200
       1992.9600        27.022300        4.9514800
       2025.2000        27.036100        4.8290600
       2057.9500        27.048800        4.7048700
       2091.2400        27.058500        4.5835200
       2125.0600        27.065700        4.4645600
       2159.4300        27.070500        4.3483700
       2194.3600        27.073700        4.2350900
       2229.8500        27.075100        4.1242500
       2265.9200        27.074800        4.0159200
       2302.5700        27.072900        3.9101800
       2339.8100        27.069500        3.8068400
       2377.6600        27.064700        3.7060900
       2416.1100        27.058600        3.6075500
       2455.1900        27.051300        3.5116900
       2494.9000        27.042900        3.4178900
       2535.2600        27.033300        3.3264500
       2576.2600        27.022700        3.2372800
       2617.9300        27.011200        3.1503100
       2660.2700        26.998700        3.0654700
       2703.3000        26.985400        2.9827800
       2747.0300        26.971300        2.9021300
       2791.4600        26.956400        2.8235400
       2836.6100        26.940900        2.7469500
       2882.4900        26.924700        2.6722900
       2929.1100        26.907800        2.5995600
       2976.4800        26.890400        2.5286800
       3024.6300        26.872400        2.4596200
       3073.5500        26.853900        2.3923800
       3123.2600        26.834900        2.3268600
       3173.7800        26.815500        2.2630600
       3225.1100        26.795600        2.2009600
       3277.2700        26.775300        2.1404900
       3330.2800        26.754600        2.0816000
       3384.1500        26.733600        2.0242600
       3438.8800        26.712200        1.9684500
       3494.5000        26.690400        1.9141700
       3551.0200        26.668400        1.8613100
       3608.4600        26.646000        1.8098700
       3666.8200        26.623300        1.7598300
       3726.1300        26.600400        1.7111200
       3786.4000        26.577100        1.6637300
       3847.6400        26.553500        1.6176300
       3909.8700        26.529700        1.5727800
       3973.1100        26.505500        1.5291400
       4037.3800        26.481000        1.4867200
       4102.6800        26.456300        1.4454600
       4169.0300        26.431200        1.4053300
       4236.4600        26.405800        1.3663100
       4304.9800        26.380000        1.3283800
       4374.6200        26.353900        1.2914500
       4445.3700        26.327300        1.2556000
       4517.2700        26.300400        1.2206900
       4590.3300        26.273000        1.1868200
       4664.5800        26.245100        1.1538300
       4740.0300        26.216600        1.1217800
       4816.6900        26.187600        1.0906400
