;  Atomic scattering factors for Cr.
;   
;  Concatenation of data from CXRO <http://www-cxro.lbl.gov>
;  and LLNL <http://www-phys.llnl.gov/V_Div/scattering/asf.html>
;  
;  E (eV) f1 f2
;---------------
       10.000000       -9999.0000        1.0570000
       10.161700       -9999.0000        1.1036200
       10.326100       -9999.0000        1.1522900
       10.493100       -9999.0000        1.2031100
       10.662800       -9999.0000        1.2561800
       10.835300       -9999.0000        1.3115800
       11.010600       -9999.0000        1.3694300
       11.188600       -9999.0000        1.4291600
       11.369600       -9999.0000        1.4878900
       11.553500       -9999.0000        1.5490300
       11.740400       -9999.0000        1.6126800
       11.930300       -9999.0000        1.6789500
       12.123200       -9999.0000        1.7479400
       12.319300       -9999.0000        1.8197700
       12.518600       -9999.0000        1.8945500
       12.721000       -9999.0000        1.9724000
       12.926800       -9999.0000        2.0523600
       13.135900       -9999.0000        2.1355700
       13.348300       -9999.0000        2.2221500
       13.564200       -9999.0000        2.3122400
       13.783600       -9999.0000        2.4059800
       14.006600       -9999.0000        2.5073300
       14.233100       -9999.0000        2.6205800
       14.463300       -9999.0000        2.7389600
       14.697300       -9999.0000        2.8626800
       14.935000       -9999.0000        2.9919900
       15.176500       -9999.0000        3.0835000
       15.422000       -9999.0000        3.1675100
       15.671400       -9999.0000        3.2538200
       15.924900       -9999.0000        3.3424800
       16.182500       -9999.0000        3.4335400
       16.444200       -9999.0000        3.5271000
       16.710200       -9999.0000        3.5951300
       16.980500       -9999.0000        3.6613900
       17.255100       -9999.0000        3.7288700
       17.534200       -9999.0000        3.7976000
       17.817800       -9999.0000        3.8675900
       18.106000       -9999.0000        3.9232400
       18.398900       -9999.0000        3.9592000
       18.696400       -9999.0000        3.9954900
       18.998800       -9999.0000        4.0321200
       19.306100       -9999.0000        4.0690800
       19.618400       -9999.0000        4.0968400
       19.935700       -9999.0000        4.1199600
       20.258200       -9999.0000        4.1432100
       20.585800       -9999.0000        4.1666000
       20.918800       -9999.0000        4.1901200
       21.257100       -9999.0000        4.2137700
       21.600900       -9999.0000        4.2219700
       21.950300       -9999.0000        4.2101600
       22.305300       -9999.0000        4.1983900
       22.666100       -9999.0000        4.1866500
       23.032700       -9999.0000        4.1749400
       23.405300       -9999.0000        4.1632600
       23.783800       -9999.0000        4.0968800
       24.168500       -9999.0000        4.0277900
       24.559400       -9999.0000        3.9598600
       24.956600       -9999.0000        3.8930700
       25.360300       -9999.0000        3.8274200
       25.770500       -9999.0000        3.7628700
       26.187300       -9999.0000        3.6994100
       26.610900       -9999.0000        3.6095800
       27.041300       -9999.0000        3.4973500
       27.478600       -9999.0000        3.3886000
       27.923100       -9999.0000        3.2832400
       28.374700       -9999.0000        3.1811500
       28.833700       -9999.0000        3.0822400
       29.300000        5.9422800        2.9900400
       29.773900        5.9290900        2.9049400
       30.255500        5.9106600        2.8222600
       30.744900        5.8858400        2.7419400
       31.242100        5.8542600        2.6639100
       31.747500        5.8149800        2.5880900
       32.260900        5.7668000        2.5172300
       32.782700        5.7146500        2.4504100
       33.313000        5.6565400        2.3853700
       33.851800        5.5911900        2.3220500
       34.399300        5.5178100        2.2604100
       34.955700        5.4353500        2.1998600
       35.521100        5.3415600        2.1405900
       36.095600        5.2345400        2.0829200
       36.679400        5.1106800        2.0268100
       37.272700        4.9596400        1.9722000
       37.875500        4.7876600        1.9557800
       38.488200        4.6122200        1.9449600
       39.110700        4.4197600        1.9511600
       39.743200        4.2069400        1.9624800
       40.386100        3.9736200        2.0215100
       41.039300        3.7347700        2.0891100
       41.703100        3.4514800        2.1752000
       42.377600        3.1524200        2.3225700
       43.063000        2.7975000        2.4799300
       43.759500        2.3849800        2.8436600
       44.467300        2.0827100        3.3296800
       45.186500        1.8721200        3.8987600
       45.917400        1.7894500        4.5651000
       46.660000        1.9902200        5.3117100
       47.414700        2.2800700        5.6596300
       48.181600        2.4918000        6.0303400
       48.960900        2.7111400        6.4253200
       49.752800        3.0333100        6.7953600
       50.557600        3.3319900        7.0501600
       51.375300        3.6150200        7.3145100
       52.206200        3.9217000        7.5887800
       53.050600        4.3124900        7.8263400
       53.908700        4.6688700        7.9629800
       54.780600        5.0045900        8.1020000
       55.666700        5.3491600        8.2434600
       56.567000        5.7462200        8.3873800
       57.482000        6.1919900        8.3976600
       58.411700        6.5609500        8.3615200
       59.356400        6.8964300        8.3255400
       60.316500        7.2460000        8.2897000
       61.292100        7.5780900        8.1569900
       62.283400        7.8554900        8.0219300
       63.290800        8.0993500        7.8891100
       64.314500        8.3262300        7.7584800
       65.354700        8.5519000        7.6300200
       66.411800        8.7620000        7.4544300
       67.485900        8.9262900        7.2732700
       68.577500        9.0575500        7.0965200
       69.686700        9.1524000        6.9252200
       70.813800        9.2336800        6.7916500
       71.959100        9.3117300        6.6606500
       73.123000        9.3771000        6.5321800
       74.305700        9.4181100        6.4061800
       75.507600        9.4498100        6.3225400
       76.728900        9.4942600        6.2462900
       77.969900        9.5404000        6.1709600
       79.231000        9.5836500        6.0965400
       80.512500        9.6190500        6.0230100
       81.814700        9.6315600        5.9636100
       83.138000        9.6599100        5.9286400
       84.482700        9.6989500        5.8938700
       85.849100        9.7410400        5.8593200
       87.237700        9.7846500        5.8249600
       88.648700        9.8289200        5.7908100
       90.082500        9.8737000        5.7558500
       91.539500        9.9160000        5.7199800
       93.020100        9.9553500        5.6843200
       94.524600        9.9909400        5.6488900
       96.053500        10.020500        5.6136900
       97.607100        10.035600        5.5786900
       99.185800        10.050600        5.5775300
       100.79000        10.077300        5.5775400
       102.42000        10.110500        5.5775600
       104.07700        10.145400        5.5775700
       105.76000        10.179700        5.5775800
       107.47100        10.206200        5.5776000
       109.20900        10.235300        5.6049600
       110.97500        10.278600        5.6346900
       112.77000        10.332700        5.6645800
       114.59400        10.394600        5.6946200
       116.44800        10.464600        5.7248300
       118.33100        10.545300        5.7551900
       120.24500        10.652700        5.7746700
       122.19000        10.747900        5.7662400
       124.16600        10.832400        5.7578300
       126.17500        10.914400        5.7494200
       128.21500        10.995700        5.7410300
       130.28900        11.078100        5.7326500
       132.39700        11.167200        5.7242800
       134.53800        11.253700        5.6993400
       136.71400        11.332900        5.6744700
       138.92500        11.408400        5.6497200
       141.17200        11.481400        5.6250700
       143.45600        11.552300        5.6005200
       145.77600        11.621000        5.5760900
       148.13400        11.685500        5.5541400
       150.53000        11.753000        5.5366400
       152.96400        11.822500        5.5191900
       155.43900        11.893600        5.5018000
       157.95300        11.966700        5.4844600
       160.50700        12.042500        5.4671800
       163.10300        12.122700        5.4499500
       165.74200        12.215400        5.4327800
       168.42200        12.318500        5.3895900
       171.14600        12.401400        5.3298200
       173.91500        12.472100        5.2707000
       176.72700        12.535200        5.2122400
       179.58600        12.591900        5.1544300
       182.49100        12.642700        5.0972700
       185.44200        12.686900        5.0407300
       188.44200        12.718200        4.9848300
       191.48900        12.745300        4.9495900
       194.58700        12.781300        4.9201500
       197.73400        12.821200        4.8908800
       200.93200        12.863200        4.8617800
       204.18200        12.906600        4.8328600
       207.48500        12.951300        4.8041200
       210.84000        12.997700        4.7755400
       214.25100        13.046800        4.7471300
       217.71600        13.104500        4.7143600
       221.23700        13.154700        4.6692300
       224.81600        13.199200        4.6245300
       228.45200        13.240300        4.5802600
       232.14700        13.278700        4.5364000
       235.90200        13.315100        4.4929700
       239.71700        13.349700        4.4499600
       243.59500        13.382600        4.4073600
       247.53500        13.414200        4.3651700
       251.53800        13.445500        4.3233700
       255.60700        13.475100        4.2797300
       259.74100        13.502400        4.2364300
       263.94200        13.528100        4.1935600
       268.21100        13.552600        4.1511400
       272.54900        13.576200        4.1091300
       276.95700        13.599800        4.0675700
       281.43700        13.625400        4.0264100
       285.98900        13.654600        3.9762700
       290.61500        13.675300        3.9196700
       295.31500        13.688300        3.8638800
       300.09200        13.697100        3.8088800
       304.94500        13.702400        3.7546700
       309.87800        13.705200        3.7010800
       314.89000        13.704100        3.6459300
       319.98300        13.699000        3.5916000
       325.15800        13.690400        3.5380800
       330.41800        13.678800        3.4853600
       335.76200        13.664900        3.4334200
       341.19200        13.650200        3.3822500
       346.71100        13.640300        3.3235800
       352.31900        13.617700        3.2545700
       358.01700        13.582200        3.1869900
       363.80800        13.538500        3.1208200
       369.69200        13.486800        3.0560200
       375.67200        13.427100        2.9925700
       381.74800        13.356700        2.9312800
       387.92200        13.280200        2.8757600
       394.19700        13.197900        2.8213000
       400.57300        13.107600        2.7678600
       407.05200        13.008000        2.7154400
       413.63500        12.896100        2.6640100
       420.32600        12.772200        2.6221600
       427.12400        12.642600        2.5853500
       434.03200        12.505900        2.5490600
       441.05200        12.358100        2.5132800
       448.18600        12.197300        2.4780000
       455.43500        12.021100        2.4432100
       462.80200        11.827600        2.4089100
       470.28700        11.612800        2.3733100
       477.89400        11.371800        2.3378300
       485.62300        11.099800        2.3028800
       493.47800        10.791000        2.2684500
       501.45900        10.437200        2.2336900
       509.57000        10.023400        2.1970000
       517.81200        9.5318900        2.1609200
       526.18700        8.9360500        2.1254300
       534.69800        8.1927900        2.0905200
       543.34600        7.2204900        2.0507300
       552.13400        5.8489800        2.0095100
       561.06500        3.6322000        1.9691100
       570.13900       -1.7158800        1.9295200
       574.00000       -19.082300        1.9131100
       574.20000       -19.055400        16.973100
       579.36100       0.23645700        16.698000
       588.73200        5.4409000        16.215800
       598.25400        8.0192800        15.747500
       607.93000        9.7245200        15.292700
       617.76300        10.963300        14.851100
       627.75500        11.885600        14.422200
       637.90800        12.502200        14.084000
       648.22600        13.040500        13.894700
       658.71100        13.520900        13.707900
       669.36500        13.851300        13.600200
       680.19100        14.240800        13.668100
       691.19300        14.687600        13.736300
       702.37200        15.165200        13.804900
       713.73300        15.673900        13.873900
       725.27700        16.270500        13.943200
       737.00800        16.963800        13.881800
       748.92800        17.540900        13.646300
       761.04200        18.026900        13.414700
       773.35100        18.464700        13.187100
       785.85900        18.869300        12.963300
       798.57000        19.250400        12.743400
       811.48600        19.615400        12.527100
       824.61100        19.980900        12.314600
       837.94900        20.372800        12.075000
       851.50200        20.704600        11.760100
       865.27400        20.980700        11.453500
       879.26900        21.219700        11.154800
       893.49100        21.421000        10.864000
       907.94300        21.598500        10.608400
       922.62800        21.772100        10.369700
       937.55100        21.944700        10.136400
       952.71500        22.115900        9.9083200
       968.12400        22.278400        9.6653300
       983.78300        22.420900        9.4212100
       999.69500        22.538300        9.1832300
       1015.8600        22.640300        8.9646400
       1032.2900        22.744200        8.7609700
       1048.9900        22.847000        8.5591000
       1065.9600        22.942600        8.3588900
       1083.2000        23.031400        8.1633100
       1100.7200        23.114200        7.9723000
       1118.5200        23.191600        7.7857700
       1136.6100        23.263900        7.6036700
       1155.0000        23.331400        7.4257800
       1173.6800        23.394600        7.2520300
       1192.6600        23.453800        7.0823200
       1211.9500        23.509200        6.9165900
       1231.5500        23.561700        6.7547600
       1251.4700        23.611500        6.5954400
       1271.7200        23.658300        6.4384000
       1292.2900        23.700300        6.2832800
       1313.1900        23.738300        6.1320300
       1334.4300        23.773100        5.9844200
       1356.0100        23.804900        5.8403100
       1377.9400        23.834100        5.6996000
       1400.2300        23.860900        5.5623100
       1422.8800        23.885900        5.4284200
       1445.8900        23.909400        5.2976600
       1469.2800        23.932300        5.1691800
       1493.0400        23.954900        5.0425200
       1517.1900        23.974200        4.9136500
       1541.7300        23.989200        4.7873400
       1566.6700        24.000700        4.6642400
       1592.0100        24.009700        4.5442800
       1617.7600        24.016400        4.4274100
       1643.9200        24.021300        4.3135800
       1670.5100        24.024600        4.2027300
       1697.5300        24.026600        4.0947100
       1724.9900        24.028400        3.9894400
       1752.8900        24.028900        3.8846400
       1781.2400        24.027100        3.7818900
       1810.0500        24.023300        3.6813600
       1839.3200        24.017700        3.5834600
       1869.0700        24.010800        3.4881300
       1899.3000        24.002500        3.3952900
       1930.0200        23.993100        3.3050300
       1961.2400        23.982800        3.2171500
       1992.9600        23.971200        3.1314900
       2025.2000        23.960200        3.0495300
       2057.9500        23.948900        2.9674700
       2091.2400        23.936000        2.8873600
       2125.0600        23.922100        2.8092700
       2159.4300        23.907500        2.7332800
       2194.3600        23.892200        2.6590000
       2229.8500        23.876100        2.5867000
       2265.9200        23.859400        2.5162600
       2302.5700        23.842200        2.4476400
       2339.8100        23.824400        2.3807400
       2377.6600        23.806100        2.3156200
       2416.1100        23.787300        2.2521700
       2455.1900        23.768000        2.1904000
       2494.9000        23.748400        2.1302200
       2535.2600        23.728300        2.0716400
       2576.2600        23.707800        2.0146200
       2617.9300        23.687000        1.9591000
       2660.2700        23.665800        1.9050800
       2703.3000        23.644300        1.8524800
       2747.0300        23.622500        1.8012900
       2791.4600        23.600300        1.7514800
       2836.6100        23.577900        1.7030200
       2882.4900        23.555100        1.6558500
       2929.1100        23.532100        1.6099800
       2976.4800        23.508700        1.5653800
       3024.6300        23.485100        1.5219900
       3073.5500        23.461200        1.4797700
       3123.2600        23.437000        1.4387200
       3173.7800        23.412500        1.3987900
       3225.1100        23.387600        1.3599700
       3277.2700        23.362500        1.3222200
       3330.2800        23.336900        1.2855300
       3384.1500        23.311000        1.2498400
       3438.8800        23.284800        1.2151400
       3494.5000        23.258000        1.1814100
       3551.0200        23.230900        1.1486500
       3608.4600        23.203200        1.1167900
       3666.8200        23.175000        1.0858400
       3726.1300        23.146200        1.0557200
       3786.4000        23.116800        1.0265200
       3847.6400        23.086800       0.99808300
       3909.8700        23.055900       0.97047700
       3973.1100        23.024200       0.94362600
       4037.3800        22.991600       0.91757300
       4102.6800        22.957900       0.89224000
       4169.0300        22.923000       0.86764300
       4236.4600        22.886900       0.84375800
       4304.9800        22.849300       0.82055200
       4374.6200        22.810100       0.79799100
       4445.3700        22.769000       0.77606200
       4517.2700        22.725800       0.75477400
       4590.3300        22.680200       0.73414800
       4664.5800        22.631800       0.71406900
       4740.0300        22.580100       0.69456800
       4816.6900        22.524700       0.67563500
