;  Atomic scattering factors for Cs.
;   
;  Concatenation of data from CXRO <http://www-cxro.lbl.gov>
;  and LLNL <http://www-phys.llnl.gov/V_Div/scattering/asf.html>
;  
;  E (eV) f1 f2
;---------------
       10.000000       -9999.0000      0.042943700
       10.161700       -9999.0000      0.041990000
       10.326100       -9999.0000      0.041057400
       10.493100       -9999.0000      0.040145600
       10.662800       -9999.0000      0.039254000
       10.835300       -9999.0000      0.038382200
       11.010600       -9999.0000      0.041857900
       11.188600       -9999.0000      0.049868800
       11.369600       -9999.0000      0.062906900
       11.553500       -9999.0000      0.068225900
       11.740400       -9999.0000      0.069877500
       11.930300       -9999.0000      0.081003600
       12.123200       -9999.0000       0.10664800
       12.319300       -9999.0000       0.15121200
       12.518600       -9999.0000       0.23047600
       12.721000       -9999.0000       0.36699100
       12.926800       -9999.0000       0.52835500
       13.135900       -9999.0000       0.81815300
       13.348300       -9999.0000        1.0240000
       13.564200       -9999.0000        1.2687200
       13.783600       -9999.0000        1.5515500
       14.006600       -9999.0000        1.8771500
       14.233100       -9999.0000        2.3732400
       14.463300       -9999.0000        2.9215000
       14.697300       -9999.0000        3.6658900
       14.935000       -9999.0000        4.7514800
       15.176500       -9999.0000        6.9688500
       15.422000       -9999.0000        8.9168400
       15.671400       -9999.0000        10.500400
       15.924900       -9999.0000        11.215500
       16.182500       -9999.0000        11.979300
       16.444200       -9999.0000        12.667100
       16.710200       -9999.0000        13.347200
       16.980500       -9999.0000        13.905700
       17.255100       -9999.0000        14.026400
       17.534200       -9999.0000        14.148200
       17.817800       -9999.0000        14.271000
       18.106000       -9999.0000        14.394900
       18.398900       -9999.0000        14.519900
       18.696400       -9999.0000        14.342700
       18.998800       -9999.0000        14.132800
       19.306100       -9999.0000        13.925900
       19.618400       -9999.0000        13.722100
       19.935700       -9999.0000        13.445800
       20.258200       -9999.0000        13.163800
       20.585800       -9999.0000        12.887800
       20.918800       -9999.0000        12.614100
       21.257100       -9999.0000        12.223200
       21.600900       -9999.0000        11.844500
       21.950300       -9999.0000        11.477500
       22.305300       -9999.0000        11.055300
       22.666100       -9999.0000        10.626900
       23.032700       -9999.0000        10.215100
       23.405300       -9999.0000        9.8192200
       23.783800       -9999.0000        9.4477400
       24.168500       -9999.0000        9.1107200
       24.559400       -9999.0000        8.7857100
       24.956600       -9999.0000        8.4723000
       25.360300       -9999.0000        8.0678600
       25.770500       -9999.0000        7.5629000
       26.187300       -9999.0000        7.0895400
       26.610900       -9999.0000        6.7447900
       27.041300       -9999.0000        6.4559000
       27.478600       -9999.0000        6.1794000
       27.923100       -9999.0000        5.9147300
       28.374700       -9999.0000        5.6546500
       28.833700       -9999.0000        5.3988400
       29.300000        12.661700        5.1546000
       29.773900        12.608500        4.9214100
       30.255500        12.548100        4.7081900
       30.744900        12.492600        4.5074400
       31.242100        12.440000        4.3152500
       31.747500        12.396000        4.1312500
       32.260900        12.375700        3.9551000
       32.782700        12.351500        3.6991200
       33.313000        12.258300        3.4445600
       33.851800        12.135300        3.2373000
       34.399300        12.014500        3.0485800
       34.955700        11.889500        2.8708700
       35.521100        11.759400        2.7035100
       36.095600        11.624400        2.5459200
       36.679400        11.484600        2.3975000
       37.272700        11.340100        2.2577400
       37.875500        11.191000        2.1261300
       38.488200        11.036100        2.0021900
       39.110700        10.872300        1.8883600
       39.743200        10.709600        1.7903200
       40.386100        10.547900        1.6973800
       41.039300        10.383400        1.6092600
       41.703100        10.213200        1.5257200
       42.377600        10.039100        1.4565100
       43.063000        9.8679500        1.3926600
       43.759500        9.6952900        1.3316200
       44.467300        9.5186200        1.2732400
       45.186500        9.3337900        1.2174300
       45.917400        9.1441500        1.1779500
       46.660000        8.9566000        1.1414900
       47.414700        8.7651300        1.1079500
       48.181600        8.5712900        1.0784600
       48.960900        8.3710900        1.0497500
       49.752800        8.1602800        1.0314000
       50.557600        7.9524800        1.0203700
       51.375300        7.7414800        1.0094500
       52.206200        7.5251400        1.0007100
       53.050600        7.3021800       0.99208300
       53.908700        7.0699300       0.98352700
       54.780600        6.8266500       0.97732200
       55.666700        6.5718900       0.97192400
       56.567000        6.2997800       0.96655600
       57.482000        6.0070700       0.97565100
       58.411700        5.7095700       0.99222200
       59.356400        5.4005700        1.0089900
       60.316500        5.0742000        1.0259900
       61.292100        4.7266000        1.0432800
       62.283400        4.3521800        1.0608700
       63.290800        3.9403500        1.0836500
       64.314500        3.5022500        1.1211500
       65.354700        3.0317000        1.1599400
       66.411800        2.5169600        1.2000700
       67.485900        1.9455800        1.2416000
       68.577500        1.2976200        1.2845600
       69.686700       0.53361400        1.3431500
       70.813800      -0.35704500        1.4296100
       71.959100       -1.4946800        1.5362600
       73.123000       -3.2456300        1.8957400
       74.305700       -4.9572600        4.0341600
       75.507600       -3.7190000        5.5363300
       76.728900       -4.1378100        5.3292000
       77.969900       -5.3683700        5.6066000
       79.231000       -6.8036800        6.4997500
       80.512500       -8.0742300        7.8122900
       81.814700       -9.2388300        9.3898400
       83.138000       -10.286000        11.258300
       84.482700       -11.216100        13.451500
       85.849100       -11.824300        16.072100
       87.237700       -11.769900        18.735000
       88.648700       -11.673700        21.392600
       90.082500       -11.278900        24.427300
       91.539500       -9.9184300        27.892400
       93.020100       -7.9819600        29.959300
       94.524600       -6.3101200        31.991400
       96.053500       -4.6155000        34.161400
       97.607100       -2.4787300        36.478500
       99.185800       0.54602500        38.173800
       100.79000        3.1491200        39.225800
       102.42000        5.5735500        40.306800
       104.07700        8.1548300        41.417600
       105.76000        11.235300        42.559100
       107.47100        14.523400        42.788600
       109.20900        17.556900        42.842800
       110.97500        20.736900        42.897000
       112.77000        24.299100        42.477700
       114.59400        28.222600        41.812500
       116.44800        31.793900        39.137400
       118.33100        34.294100        36.427100
       120.24500        36.199100        33.880400
       122.19000        37.715500        31.324700
       124.16600        39.053000        28.961900
       126.17500        40.359900        26.251600
       128.21500        40.944800        23.409200
       130.28900        41.176900        20.770200
       132.39700        41.045800        18.324900
       134.53800        40.765800        16.161100
       136.71400        40.265900        14.010100
       138.92500        39.581000        12.145400
       141.17200        38.767700        10.460200
       143.45600        37.855800        8.9998500
       145.77600        36.890100        7.7434100
       148.13400        35.904700        6.6765700
       150.53000        34.897100        5.7569700
       152.96400        33.870900        5.0650000
       155.43900        32.980300        4.5327100
       157.95300        32.158000        4.0593200
       160.50700        31.388300        3.6490900
       163.10300        30.652300        3.2803100
       165.74200        29.913400        2.9488000
       168.42200        29.202700        2.7290600
       171.14600        28.543700        2.5402300
       173.91500        27.882000        2.4118100
       176.72700        27.304500        2.3528400
       179.58600        26.772600        2.2953100
       182.49100        26.227500        2.2481800
       185.44200        25.725600        2.2867700
       188.44200        25.277400        2.3477700
       191.48900        24.879400        2.4212000
       194.58700        24.530600        2.4969200
       197.73400        24.195900        2.5371600
       200.93200        23.855200        2.6135600
       204.18200        23.540100        2.6908200
       207.48500        23.231300        2.7795400
       210.84000        22.935400        2.8836000
       214.25100        22.659700        3.0151800
       217.71600        22.406100        3.1565700
       221.23700        22.175400        3.3073600
       224.81600        21.964600        3.4656300
       228.45200        21.773700        3.6305700
       232.14700        21.602400        3.8016800
       235.90200        21.449000        3.9749400
       239.71700        21.315400        4.1514700
       243.59500        21.197900        4.3298800
       247.53500        21.096000        4.5074600
       251.53800        21.014600        4.6855500
       255.60700        20.945700        4.8610300
       259.74100        20.888400        5.0321300
       263.94200        20.845400        5.2029700
       268.21100        20.816800        5.3734600
       272.54900        20.799800        5.5326100
       276.95700        20.790800        5.6895600
       281.43700        20.794000        5.8470700
       285.98900        20.806600        5.9911200
       290.61500        20.828100        6.1318100
       295.31500        20.854800        6.2675400
       300.09200        20.887500        6.3957500
       304.94500        20.930100        6.5183900
       309.87800        20.974200        6.6335900
       314.89000        21.022100        6.7443400
       319.98300        21.078400        6.8484300
       325.15800        21.133400        6.9435500
       330.41800        21.189300        7.0346200
       335.76200        21.254300        7.1204400
       341.19200        21.316600        7.1961000
       346.71100        21.376500        7.2678100
       352.31900        21.442600        7.3359100
       358.01700        21.505700        7.3931500
       363.80800        21.565300        7.4445800
       369.69200        21.625200        7.4929600
       375.67200        21.683000        7.5364100
       381.74800        21.737600        7.5721300
       387.92200        21.788200        7.6052000
       394.19700        21.839600        7.6371400
       400.57300        21.889000        7.6569200
       407.05200        21.928800        7.6718600
       413.63500        21.964200        7.6869200
       420.32600        21.995800        7.6965600
       427.12400        22.023900        7.7039900
       434.03200        22.046100        7.7072300
       441.05200        22.064500        7.7105300
       448.18600        22.116000        7.7017000
       455.43500        22.125200        7.6318600
       462.80200        22.085000        7.5886800
       470.28700        22.038300        7.5597200
       477.89400        21.986900        7.5307800
       485.62300        21.924300        7.5020400
       493.47800        21.850000        7.4734200
       501.45900        21.763300        7.4448900
       509.57000        21.663900        7.4164300
       517.81200        21.553100        7.3868100
       526.18700        21.428000        7.3528600
       534.69800        21.283900        7.3105400
       543.34600        21.113200        7.2642700
       552.13400        20.917200        7.2183100
       561.06500        20.693700        7.1682300
       570.13900        20.437600        7.1160300
       579.36100        20.142600        7.0614800
       588.73200        19.804800        7.0068200
       598.25400        19.417700        6.9522200
       607.93000        18.973700        6.8979900
       617.76300        18.462600        6.8442400
       627.75500        17.872200        6.7905100
       637.90800        17.181800        6.7316200
       648.22600        16.359800        6.6650800
       658.71100        15.357200        6.5938800
       669.36500        14.109700        6.5234700
       680.19100        12.511300        6.4637000
       691.19300        10.371600        6.4121000
       702.37200        7.2514200        6.3628800
       713.73300        1.7866700        6.3073100
       725.27700       -19.313200        6.2475900
       726.50000       -44.142800        6.2413500
       726.70000       -44.105100        36.626700
       737.00800        1.6924300        35.873400
       748.92800        9.6694900        35.034000
       761.04200        14.284000        34.214300
       773.35100        17.544700        33.413800
       785.85900        20.049600        32.631900
       798.57000        22.060600        31.868500
       811.48600        23.690000        31.122800
       824.61100        25.056300        30.450000
       837.94900        26.236500        29.801000
       851.50200        27.247600        29.165900
       865.27400        28.103700        28.544300
       879.26900        28.811600        27.936000
       893.49100        29.341100        27.340600
       907.94300        29.684900        26.823600
       922.62800        29.888500        26.393700
       937.55100        29.644500        25.970600
       952.71500        29.517000        26.581700
       968.12400        29.790000        27.275500
       983.78300        30.399400        27.987300
       999.69500        31.238400        28.717800
       1015.8600        32.940900        29.467200
       1032.2900        34.549000        28.933400
       1048.9900        35.585400        28.358500
       1065.9600        36.397400        27.795100
       1083.2000        36.966600        27.314300
       1100.7200        37.526100        27.015900
       1118.5200        38.142500        26.720700
       1136.6100        38.750700        26.428800
       1155.0000        39.414600        26.140100
       1173.6800        40.057400        25.731000
       1192.6600        40.610200        25.296000
       1211.9500        41.108000        24.868400
       1231.5500        41.564400        24.448100
       1251.4700        41.985200        24.034800
       1271.7200        42.354500        23.628500
       1292.2900        42.692900        23.268700
       1313.1900        43.038200        22.939900
       1334.4300        43.383700        22.615800
       1356.0100        43.723600        22.296200
       1377.9400        44.057000        21.981200
       1400.2300        44.384700        21.670600
       1422.8800        44.709100        21.364400
       1445.8900        45.028900        21.055000
       1469.2800        45.340700        20.746800
       1493.0400        45.645900        20.443100
       1517.1900        45.949300        20.143900
       1541.7300        46.255600        19.849000
       1566.6700        46.577400        19.558500
       1592.0100        46.933700        19.223800
       1617.7600        47.249700        18.826600
       1643.9200        47.507800        18.438500
       1670.5100        47.743500        18.058500
       1697.5300        47.961300        17.686400
       1724.9900        48.167400        17.321800
       1752.8900        48.359800        16.954400
       1781.2400        48.535900        16.591200
       1810.0500        48.695200        16.232900
       1839.3200        48.840600        15.882600
       1869.0700        48.974400        15.539800
       1899.3000        49.097700        15.204200
       1930.0200        49.211200        14.875900
       1961.2400        49.316200        14.554800
       1992.9600        49.411200        14.241000
       2025.2000        49.504500        13.939600
       2057.9500        49.593000        13.633600
       2091.2400        49.671900        13.333100
       2125.0600        49.742200        13.037900
       2159.4300        49.805200        12.748800
       2194.3600        49.861700        12.465100
       2229.8500        49.911700        12.186900
       2265.9200        49.955800        11.914500
       2302.5700        49.994100        11.647000
       2339.8100        50.026400        11.385000
       2377.6600        50.053800        11.128800
       2416.1100        50.076100        10.877000
       2455.1900        50.093400        10.630600
       2494.9000        50.105600        10.388900
       2535.2600        50.113200        10.152600
       2576.2600        50.116400        9.9209500
       2617.9300        50.115400        9.6941300
       2660.2700        50.109700        9.4715000
       2703.3000        50.099600        9.2539700
       2747.0300        50.085600        9.0411200
       2791.4600        50.067600        8.8325500
       2836.6100        50.045400        8.6282300
       2882.4900        50.019200        8.4283200
       2929.1100        49.988900        8.2326100
       2976.4800        49.954600        8.0410700
       3024.6300        49.916200        7.8535500
       3073.5500        49.873700        7.6701100
       3123.2600        49.827000        7.4905000
       3173.7800        49.776100        7.3147600
       3225.1100        49.720800        7.1428200
       3277.2700        49.661000        6.9745100
       3330.2800        49.596400        6.8097900
       3384.1500        49.526900        6.6486800
       3438.8800        49.452200        6.4910100
       3494.5000        49.372000        6.3367600
       3551.0200        49.286000        6.1858600
       3608.4600        49.193700        6.0382400
       3666.8200        49.094600        5.8937600
       3726.1300        48.988200        5.7525500
       3786.4000        48.873800        5.6142700
       3847.6400        48.750400        5.4790400
       3909.8700        48.617100        5.3467200
       3973.1100        48.472600        5.2172600
       4037.3800        48.315400        5.0906300
       4102.6800        48.143600        4.9668000
       4169.0300        47.955000        4.8456900
       4236.4600        47.746500        4.7271800
       4304.9800        47.514200        4.6112700
       4374.6200        47.253100        4.4979000
       4445.3700        46.955900        4.3868900
       4517.2700        46.612700        4.2784300
       4590.3300        46.208400        4.1723700
       4664.5800        45.719100        4.0684600
       4740.0300        45.102800        3.9669000
       4816.6900        44.275400        3.8675400
