;  Atomic scattering factors for Cu.
;   
;  Concatenation of data from CXRO <http://www-cxro.lbl.gov>
;  and LLNL <http://www-phys.llnl.gov/V_Div/scattering/asf.html>
;  
;  E (eV) f1 f2
;---------------
       10.000000       -9999.0000        1.3008800
       10.161700       -9999.0000        1.3337400
       10.326100       -9999.0000        1.3674300
       10.493100       -9999.0000        1.4019700
       10.662800       -9999.0000        1.4373800
       10.835300       -9999.0000        1.4736900
       11.010600       -9999.0000        1.5109100
       11.188600       -9999.0000        1.5490800
       11.369600       -9999.0000        1.5882100
       11.553500       -9999.0000        1.6283300
       11.740400       -9999.0000        1.6694600
       11.930300       -9999.0000        1.7116300
       12.123200       -9999.0000        1.7548700
       12.319300       -9999.0000        1.7992000
       12.518600       -9999.0000        1.8446400
       12.721000       -9999.0000        1.8912400
       12.926800       -9999.0000        1.9390100
       13.135900       -9999.0000        1.9879900
       13.348300       -9999.0000        2.0382100
       13.564200       -9999.0000        2.0897000
       13.783600       -9999.0000        2.1424800
       14.006600       -9999.0000        2.1966000
       14.233100       -9999.0000        2.2520900
       14.463300       -9999.0000        2.3077900
       14.697300       -9999.0000        2.3638200
       14.935000       -9999.0000        2.4212100
       15.176500       -9999.0000        2.4799900
       15.422000       -9999.0000        2.5401900
       15.671400       -9999.0000        2.5982400
       15.924900       -9999.0000        2.6552000
       16.182500       -9999.0000        2.7134100
       16.444200       -9999.0000        2.7728900
       16.710200       -9999.0000        2.8336800
       16.980500       -9999.0000        2.8958000
       17.255100       -9999.0000        2.9391800
       17.534200       -9999.0000        2.9748600
       17.817800       -9999.0000        3.0109800
       18.106000       -9999.0000        3.0475400
       18.398900       -9999.0000        3.0845400
       18.696400       -9999.0000        3.1057100
       18.998800       -9999.0000        3.1269600
       19.306100       -9999.0000        3.1483500
       19.618400       -9999.0000        3.1698900
       19.935700       -9999.0000        3.1915800
       20.258200       -9999.0000        3.2006600
       20.585800       -9999.0000        3.1964100
       20.918800       -9999.0000        3.1921800
       21.257100       -9999.0000        3.1879400
       21.600900       -9999.0000        3.1837200
       21.950300       -9999.0000        3.2042900
       22.305300       -9999.0000        3.2336500
       22.666100       -9999.0000        3.2632700
       23.032700       -9999.0000        3.2931700
       23.405300       -9999.0000        3.3304100
       23.783800       -9999.0000        3.3966900
       24.168500       -9999.0000        3.4642800
       24.559400       -9999.0000        3.5332200
       24.956600       -9999.0000        3.6035300
       25.360300       -9999.0000        3.6752400
       25.770500       -9999.0000        3.7757800
       26.187300       -9999.0000        3.8922700
       26.610900       -9999.0000        4.0123600
       27.041300       -9999.0000        4.1361500
       27.478600       -9999.0000        4.2637600
       27.923100       -9999.0000        4.3953000
       28.374700       -9999.0000        4.5309100
       28.833700       -9999.0000        4.6219500
       29.300000        1.5525000        4.7080000
       29.773900        1.6509500        4.7956500
       30.255500        1.7578200        4.8849400
       30.744900        1.8849100        4.9758800
       31.242100        2.0539700        5.0660600
       31.747500        2.2214300        5.0578000
       32.260900        2.3531100        5.0495500
       32.782700        2.4760700        5.0413200
       33.313000        2.6084100        5.0305200
       33.851800        2.7232500        4.9629000
       34.399300        2.8029700        4.8961800
       34.955700        2.8603600        4.8303700
       35.521100        2.8981100        4.7654400
       36.095600        2.9145700        4.7013800
       36.679400        2.9014100        4.6381800
       37.272700        2.8427200        4.6233100
       37.875500        2.8202300        4.6462000
       38.488200        2.8100800        4.6691900
       39.110700        2.8035700        4.6923100
       39.743200        2.7965000        4.7155300
       40.386100        2.7848800        4.7388800
       41.039300        2.7580900        4.7623300
       41.703100        2.7160100        4.8251800
       42.377600        2.7006100        4.9039500
       43.063000        2.6995200        4.9840000
       43.759500        2.7061400        5.0653600
       44.467300        2.7192300        5.1480500
       45.186500        2.7382200        5.2320900
       45.917400        2.7631900        5.3174900
       46.660000        2.7964000        5.4043000
       47.414700        2.8407000        5.4823900
       48.181600        2.8793700        5.5544100
       48.960900        2.9162300        5.6273700
       49.752800        2.9535800        5.7012800
       50.557600        2.9917100        5.7761700
       51.375300        3.0308200        5.8520400
       52.206200        3.0709600        5.9289100
       53.050600        3.1118200        6.0068000
       53.908700        3.1522900        6.0871800
       54.780600        3.1962600        6.1705700
       55.666700        3.2431200        6.2551000
       56.567000        3.2924800        6.3407900
       57.482000        3.3445000        6.4276500
       58.411700        3.3994700        6.5157000
       59.356400        3.4580900        6.6049600
       60.316500        3.5226700        6.6951000
       61.292100        3.5891300        6.7777000
       62.283400        3.6548300        6.8613100
       63.290800        3.7213200        6.9459400
       64.314500        3.7897400        7.0316300
       65.354700        3.8607400        7.1183700
       66.411800        3.9351900        7.2061800
       67.485900        4.0148100        7.2950700
       68.577500        4.1055400        7.3850600
       69.686700        4.1998000        7.4515700
       70.813800        4.2844000        7.5158500
       71.959100        4.3635500        7.5806800
       73.123000        4.4402100        7.6460800
       74.305700        4.5148700        7.7120400
       75.507600        4.5876400        7.7785700
       76.728900        4.6581000        7.8456800
       77.969900        4.7241900        7.9154500
       79.231000        4.7917900        7.9905100
       80.512500        4.8600600        8.0662800
       81.814700        4.9277600        8.1427600
       83.138000        4.9933700        8.2199700
       84.482700        5.0529000        8.2979100
       85.849100        5.1053800        8.3917100
       87.237700        5.1699200        8.4962700
       88.648700        5.2412800        8.6021400
       90.082500        5.3170800        8.7093200
       91.539500        5.3963500        8.8178300
       93.020100        5.4781500        8.9277000
       94.524600        5.5602600        9.0389400
       96.053500        5.6443100        9.1603300
       97.607100        5.7368700        9.2856800
       99.185800        5.8366200        9.4127300
       100.79000        5.9424200        9.5415300
       102.42000        6.0543900        9.6721000
       104.07700        6.1730800        9.8044400
       105.76000        6.2997600        9.9386000
       107.47100        6.4388200        10.069800
       109.20900        6.5781800        10.195100
       110.97500        6.7207400        10.321900
       112.77000        6.8683900        10.450300
       114.59400        7.0224100        10.580300
       116.44800        7.1840600        10.712000
       118.33100        7.3552800        10.845200
       120.24500        7.5397200        10.980200
       122.19000        7.7507900        11.114600
       124.16600        7.9625800        11.203800
       126.17500        8.1645100        11.293800
       128.21500        8.3628200        11.384500
       130.28900        8.5627300        11.475900
       132.39700        8.7660700        11.568100
       134.53800        8.9745000        11.660900
       136.71400        9.1896900        11.754600
       138.92500        9.4137800        11.849000
       141.17200        9.6497500        11.944100
       143.45600        9.9043200        12.040000
       145.77600        10.213300        12.129400
       148.13400        10.508200        12.129000
       150.53000        10.770000        12.128500
       152.96400        11.019600        12.128100
       155.43900        11.263100        12.127700
       157.95300        11.503700        12.127300
       160.50700        11.744100        12.126900
       163.10300        11.986400        12.126400
       165.74200        12.233800        12.126000
       168.42200        12.491400        12.125600
       171.14600        12.784900        12.125200
       173.91500        13.083800        12.049800
       176.72700        13.342200        11.956200
       179.58600        13.579700        11.863300
       182.49100        13.804600        11.771100
       185.44200        14.020500        11.679700
       188.44200        14.230000        11.589000
       191.48900        14.435200        11.498900
       194.58700        14.639000        11.409600
       197.73400        14.849300        11.321000
       200.93200        15.063000        11.203900
       204.18200        15.254900        11.075400
       207.48500        15.428800        10.948400
       210.84000        15.591800        10.822900
       214.25100        15.741300        10.698800
       217.71600        15.885200        10.587500
       221.23700        16.028500        10.478300
       224.81600        16.169400        10.370200
       228.45200        16.307400        10.263200
       232.14700        16.442900        10.157300
       235.90200        16.576200        10.052500
       239.71700        16.708200        9.9488300
       243.59500        16.844300        9.8461900
       247.53500        16.976300        9.7305300
       251.53800        17.098900        9.6150500
       255.60700        17.215700        9.5009500
       259.74100        17.328000        9.3881900
       263.94200        17.436400        9.2767700
       268.21100        17.541400        9.1666900
       272.54900        17.643300        9.0579000
       276.95700        17.742300        8.9504100
       281.43700        17.838900        8.8441900
       285.98900        17.933300        8.7392300
       290.61500        18.026000        8.6355100
       295.31500        18.117300        8.5330400
       300.09200        18.208100        8.4317700
       304.94500        18.306000        8.3286800
       309.87800        18.396300        8.2144500
       314.89000        18.477700        8.1017700
       319.98300        18.554500        7.9906500
       325.15800        18.627500        7.8810500
       330.41800        18.697100        7.7729600
       335.76200        18.763900        7.6663400
       341.19200        18.827900        7.5611900
       346.71100        18.889600        7.4574900
       352.31900        18.949300        7.3551900
       358.01700        19.008200        7.2543200
       363.80800        19.065500        7.1521900
       369.69200        19.119300        7.0501200
       375.67200        19.170300        6.9495300
       381.74800        19.219400        6.8503700
       387.92200        19.267100        6.7526200
       394.19700        19.314200        6.6562700
       400.57300        19.361600        6.5612900
       407.05200        19.415300        6.4676700
       413.63500        19.478300        6.3598000
       420.32600        19.522500        6.2333500
       427.12400        19.552500        6.1094200
       434.03200        19.572800        5.9879400
       441.05200        19.584600        5.8689000
       448.18600        19.588000        5.7522100
       455.43500        19.582900        5.6378400
       462.80200        19.549600        5.5342800
       470.28700        19.526900        5.4608500
       477.89400        19.517900        5.3883900
       485.62300        19.511800        5.3168800
       493.47800        19.508100        5.2463300
       501.45900        19.506500        5.1767200
       509.57000        19.517600        5.1027300
       517.81200        19.519300        5.0134200
       526.18700        19.509400        4.9256600
       534.69800        19.494300        4.8394500
       543.34600        19.474600        4.7547300
       552.13400        19.450700        4.6715200
       561.06500        19.423000        4.5897400
       570.13900        19.391700        4.5094100
       579.36100        19.360800        4.4304800
       588.73200        19.326000        4.3439300
       598.25400        19.280300        4.2552100
       607.93000        19.226000        4.1683100
       617.76300        19.164100        4.0831800
       627.75500        19.094900        3.9997900
       637.90800        19.019200        3.9181000
       648.22600        18.938400        3.8358100
       658.71100        18.845100        3.7493200
       669.36500        18.738900        3.6647700
       680.19100        18.619900        3.5821300
       691.19300        18.487300        3.5013500
       702.37200        18.334600        3.4224000
       713.73300        18.163400        3.3577000
       725.27700        17.987100        3.3051600
       737.00800        17.800900        3.2534400
       748.92800        17.599900        3.2025300
       761.04200        17.380200        3.1524200
       773.35100        17.140100        3.1031000
       785.85900        16.876500        3.0491200
       798.57000        16.570500        2.9853200
       811.48600        16.214300        2.9228600
       824.61100        15.798800        2.8617000
       837.94900        15.307200        2.8018300
       851.50200        14.727000        2.7432100
       865.27400        13.996400        2.6580900
       879.26900        13.027000        2.5720800
       893.49100        11.674500        2.4960300
       907.94300        9.6310700        2.4360900
       922.62800        5.2847100        2.2590900
       932.40000       -18.074700        2.1499100
       932.60000       -18.055200        18.478600
       937.55100        2.4225400        18.295300
       952.71500        9.9643600        17.750800
       968.12400        13.114900        17.222400
       983.78300        15.129700        16.710200
       999.69500        16.586500        16.213200
       1015.8600        17.696600        15.731100
       1032.2900        18.499600        15.263100
       1048.9900        19.080300        14.943500
       1065.9600        19.652600        14.776400
       1083.2000        20.215900        14.611200
       1100.7200        20.749500        14.447900
       1118.5200        21.254000        14.286500
       1136.6100        21.732700        14.126700
       1155.0000        22.190000        13.968800
       1173.6800        22.630300        13.812700
       1192.6600        23.058900        13.658300
       1211.9500        23.482800        13.505600
       1231.5500        23.919900        13.354700
       1251.4700        24.371200        13.159100
       1271.7200        24.820600        12.913300
       1292.2900        25.201600        12.607500
       1313.1900        25.528400        12.309100
       1334.4300        25.820500        12.017800
       1356.0100        26.085300        11.733300
       1377.9400        26.327200        11.455500
       1400.2300        26.549300        11.184400
       1422.8800        26.754200        10.919600
       1445.8900        26.943700        10.661100
       1469.2800        27.119500        10.408500
       1493.0400        27.283000        10.161600
       1517.1900        27.434600        9.9192600
       1541.7300        27.574900        9.6825500
       1566.6700        27.705200        9.4515700
       1592.0100        27.826300        9.2260600
       1617.7600        27.939100        9.0059000
       1643.9200        28.044200        8.7910300
       1670.5100        28.142500        8.5812500
       1697.5300        28.234400        8.3764900
       1724.9900        28.323000        8.1765900
       1752.8900        28.405800        7.9767600
       1781.2400        28.481000        7.7801700
       1810.0500        28.549200        7.5871100
       1839.3200        28.610800        7.3989700
       1869.0700        28.667100        7.2155500
       1899.3000        28.718700        7.0367200
       1930.0200        28.765800        6.8621300
       1961.2400        28.808600        6.6919000
       1992.9600        28.846800        6.5260600
       2025.2000        28.885000        6.3669900
       2057.9500        28.920500        6.2066400
       2091.2400        28.950800        6.0500100
       2125.0600        28.977700        5.8970200
       2159.4300        29.001600        5.7475100
       2194.3600        29.022400        5.6011500
       2229.8500        29.040200        5.4583400
       2265.9200        29.055400        5.3190300
       2302.5700        29.068500        5.1829200
       2339.8100        29.079000        5.0497700
       2377.6600        29.087400        4.9201000
       2416.1100        29.093800        4.7932100
       2455.1900        29.098200        4.6695900
       2494.9000        29.100800        4.5487200
       2535.2600        29.101600        4.4309300
       2576.2600        29.100900        4.3161500
       2617.9300        29.098700        4.2039200
       2660.2700        29.095000        4.0943400
       2703.3000        29.090000        3.9877500
       2747.0300        29.083800        3.8836200
       2791.4600        29.076300        3.7820700
       2836.6100        29.067800        3.6830200
       2882.4900        29.058200        3.5864400
       2929.1100        29.047700        3.4922400
       2976.4800        29.036200        3.4004000
       3024.6300        29.023800        3.3108600
       3073.5500        29.010700        3.2235800
       3123.2600        28.996800        3.1384700
       3173.7800        28.982200        3.0555300
       3225.1100        28.966900        2.9746400
       3277.2700        28.951000        2.8958500
       3330.2800        28.934500        2.8190200
       3384.1500        28.917400        2.7441700
       3438.8800        28.899900        2.6712200
       3494.5000        28.881800        2.6001400
       3551.0200        28.863300        2.5308500
       3608.4600        28.844400        2.4633400
       3666.8200        28.825100        2.3975700
       3726.1300        28.805300        2.3334600
       3786.4000        28.785200        2.2710500
       3847.6400        28.764800        2.2102000
       3909.8700        28.744000        2.1509200
       3973.1100        28.723000        2.0932100
       4037.3800        28.701600        2.0369600
       4102.6800        28.679900        1.9821600
       4169.0300        28.658000        1.9287800
       4236.4600        28.635700        1.8767700
       4304.9800        28.613200        1.8261300
       4374.6200        28.590300        1.7767900
       4445.3700        28.567300        1.7287700
       4517.2700        28.544000        1.6819700
       4590.3300        28.520300        1.6363200
       4664.5800        28.496300        1.5919500
       4740.0300        28.472100        1.5487000
       4816.6900        28.447600        1.5065500
