;  Atomic scattering factors for Dy.
;   
;  Concatenation of data from CXRO <http://www-cxro.lbl.gov>
;  and LLNL <http://www-phys.llnl.gov/V_Div/scattering/asf.html>
;  
;  E (eV) f1 f2
;---------------
       10.000000       -9999.0000       0.15634500
       10.161700       -9999.0000       0.16209900
       10.326100       -9999.0000       0.16806500
       10.493100       -9999.0000       0.17425000
       10.662800       -9999.0000       0.18066300
       10.835300       -9999.0000       0.18731200
       11.010600       -9999.0000       0.19420600
       11.188600       -9999.0000       0.20135300
       11.369600       -9999.0000       0.20876300
       11.553500       -9999.0000       0.21654100
       11.740400       -9999.0000       0.22505200
       11.930300       -9999.0000       0.23389700
       12.123200       -9999.0000       0.24309000
       12.319300       -9999.0000       0.25264400
       12.518600       -9999.0000       0.26257400
       12.721000       -9999.0000       0.27283000
       12.926800       -9999.0000       0.28290800
       13.135900       -9999.0000       0.29335800
       13.348300       -9999.0000       0.30419400
       13.564200       -9999.0000       0.31543100
       13.783600       -9999.0000       0.32708200
       14.006600       -9999.0000       0.33874600
       14.233100       -9999.0000       0.35059800
       14.463300       -9999.0000       0.36286400
       14.697300       -9999.0000       0.37556000
       14.935000       -9999.0000       0.38870000
       15.176500       -9999.0000       0.40230000
       15.422000       -9999.0000       0.41549800
       15.671400       -9999.0000       0.42574700
       15.924900       -9999.0000       0.43624900
       16.182500       -9999.0000       0.44701000
       16.444200       -9999.0000       0.45803600
       16.710200       -9999.0000       0.46933400
       16.980500       -9999.0000       0.48091100
       17.255100       -9999.0000       0.49764900
       17.534200       -9999.0000       0.51536000
       17.817800       -9999.0000       0.53370300
       18.106000       -9999.0000       0.54937400
       18.398900       -9999.0000       0.56474600
       18.696400       -9999.0000       0.58054800
       18.998800       -9999.0000       0.59679200
       19.306100       -9999.0000       0.61349100
       19.618400       -9999.0000       0.63065700
       19.935700       -9999.0000       0.65160100
       20.258200       -9999.0000       0.67463900
       20.585800       -9999.0000       0.69849100
       20.918800       -9999.0000       0.72865500
       21.257100       -9999.0000       0.77616600
       21.600900       -9999.0000       0.82677600
       21.950300       -9999.0000       0.88068500
       22.305300       -9999.0000       0.93810900
       22.666100       -9999.0000        1.0221200
       23.032700       -9999.0000        1.1437800
       23.405300       -9999.0000        1.2799300
       23.783800       -9999.0000        1.4322800
       24.168500       -9999.0000        1.6027600
       24.559400       -9999.0000        1.7935400
       24.956600       -9999.0000        2.0070300
       25.360300       -9999.0000        2.2564600
       25.770500       -9999.0000        2.6887100
       26.187300       -9999.0000        3.2037700
       26.610900       -9999.0000        3.8174900
       27.041300       -9999.0000        4.5487800
       27.478600       -9999.0000        5.4201600
       27.923100       -9999.0000        6.3657500
       28.374700       -9999.0000        7.4399600
       28.833700       -9999.0000        8.6954400
       29.300000       -6.5767200        10.162800
       29.773900       -5.8727000        11.625200
       30.255500       -5.1361000        12.508900
       30.744900       -4.3998400        13.459700
       31.242100       -3.3983800        14.220000
       31.747500       -2.5485600        14.795500
       32.260900       -1.6754000        15.285900
       32.782700      -0.82596900        15.730600
       33.313000       0.12398600        16.051200
       33.851800       0.95117600        16.264900
       34.399300        1.7517800        16.479200
       34.955700        2.5656300        16.666400
       35.521100        3.4363100        16.855700
       36.095600        4.5073000        16.929500
       36.679400        5.4365700        16.623400
       37.272700        6.2059500        16.322800
       37.875500        6.9283300        15.980600
       38.488200        7.5211300        15.578300
       39.110700        8.0213200        15.186100
       39.743200        8.4580200        14.803800
       40.386100        8.8422400        14.431000
       41.039300        9.1813900        14.067700
       41.703100        9.4807300        13.713600
       42.377600        9.7440800        13.368300
       43.063000        9.9741700        13.031700
       43.759500        10.172900        12.703600
       44.467300        10.341100        12.383800
       45.186500        10.478300        12.072000
       45.917400        10.581600        11.768100
       46.660000        10.633800        11.471800
       47.414700        10.623700        11.259200
       48.181600        10.662300        11.095300
       48.960900        10.719800        10.933800
       49.752800        10.778100        10.774600
       50.557600        10.833400        10.617800
       51.375300        10.883300        10.463200
       52.206200        10.925600        10.310900
       53.050600        10.958700        10.160800
       53.908700        10.980400        10.012900
       54.780600        10.987800        9.8671100
       55.666700        10.976300        9.7234600
       56.567000        10.927900        9.5819200
       57.482000        10.814800        9.5126400
       58.411700        10.763900        9.5020700
       59.356400        10.745700        9.4915200
       60.316500        10.738800        9.4809700
       61.292100        10.738900        9.4704300
       62.283400        10.742800        9.4599200
       63.290800        10.747800        9.4494000
       64.314500        10.749700        9.4389000
       65.354700        10.738300        9.4342100
       66.411800        10.735800        9.4533300
       67.485900        10.743600        9.4724800
       68.577500        10.754900        9.4916800
       69.686700        10.766900        9.5109200
       70.813800        10.775300        9.5302000
       71.959100        10.768600        9.5541900
       73.123000        10.771500        9.6098600
       74.305700        10.789400        9.6658600
       75.507600        10.814900        9.7221900
       76.728900        10.846100        9.7788400
       77.969900        10.882700        9.8357900
       79.231000        10.922300        9.8897500
       80.512500        10.963400        9.9440100
       81.814700        11.006200        9.9985600
       83.138000        11.050600        10.053400
       84.482700        11.096700        10.108500
       85.849100        11.144000        10.163600
       87.237700        11.192300        10.218900
       88.648700        11.241800        10.274500
       90.082500        11.292600        10.330500
       91.539500        11.345500        10.386200
       93.020100        11.398400        10.439400
       94.524600        11.450800        10.492900
       96.053500        11.503100        10.546700
       97.607100        11.555300        10.600700
       99.185800        11.603600        10.655100
       100.79000        11.660100        10.727300
       102.42000        11.745300        10.801200
       104.07700        11.840300        10.831300
       105.76000        11.918800        10.852000
       107.47100        11.995800        10.872700
       109.20900        12.091800        10.893400
       110.97500        12.227700        10.847200
       112.77000        12.287500        10.736000
       114.59400        12.299800        10.626000
       116.44800        12.281400        10.517200
       118.33100        12.252200        10.396300
       120.24500        12.165200        10.234100
       122.19000        12.020200        10.074400
       124.16600        11.821100        9.9172200
       126.17500        11.566500        9.7624800
       128.21500        11.251700        9.6101500
       130.28900        10.869700        9.4602100
       132.39700        10.415600        9.3126100
       134.53800        9.9100100        9.1302400
       136.71400        9.2124100        8.8657400
       138.92500        8.3545800        8.5859500
       141.17200        7.2763400        7.9298200
       143.45600        5.1556300        7.1956900
       145.77600        2.0834000        6.6320300
       148.13400       -3.4160100        6.3669900
       150.53000       -24.033000        10.610900
       152.96400       -8.9908100        43.010300
       155.43900        5.6699700        42.356100
       157.95300        14.260400        38.616600
       160.50700        19.223100        34.193000
       163.10300        22.049500        30.028000
       165.74200        21.858800        25.101100
       168.42200        20.711600        24.088700
       171.14600        20.606300        23.599300
       173.91500        20.828200        23.119800
       176.72700        21.142700        22.650100
       179.58600        21.476400        22.189900
       182.49100        21.796500        21.739100
       185.44200        22.081800        21.297400
       188.44200        22.293100        20.864700
       191.48900        22.414800        20.549500
       194.58700        22.612400        20.339900
       197.73400        22.845900        20.132400
       200.93200        23.091300        19.927100
       204.18200        23.340600        19.723800
       207.48500        23.590400        19.522600
       210.84000        23.840200        19.323500
       214.25100        24.103100        19.126400
       217.71600        24.358700        18.889100
       221.23700        24.580500        18.644200
       224.81600        24.778000        18.402400
       228.45200        24.954700        18.163800
       232.14700        25.110800        17.928300
       235.90200        25.244900        17.695800
       239.71700        25.354400        17.466400
       243.59500        25.434100        17.239900
       247.53500        25.473200        17.016400
       251.53800        25.368600        16.859700
       255.60700        25.344900        16.851700
       259.74100        25.397600        16.843600
       263.94200        25.471900        16.835500
       268.21100        25.561000        16.827500
       272.54900        25.659900        16.819400
       276.95700        25.765000        16.811300
       281.43700        25.872700        16.803300
       285.98900        25.977400        16.795300
       290.61500        26.062000        16.802000
       295.31500        26.171900        16.843400
       300.09200        26.301000        16.884900
       304.94500        26.442000        16.926500
       309.87800        26.592600        16.968200
       314.89000        26.751600        17.010000
       319.98300        26.918200        17.051900
       325.15800        27.092000        17.093900
       330.41800        27.273000        17.136000
       335.76200        27.461400        17.178200
       341.19200        27.657600        17.220500
       346.71100        27.862500        17.262900
       352.31900        28.077800        17.305400
       358.01700        28.316900        17.348000
       363.80800        28.568400        17.357500
       369.69200        28.804900        17.350800
       375.67200        29.034800        17.344200
       381.74800        29.263200        17.337600
       387.92200        29.492500        17.331000
       394.19700        29.724400        17.324300
       400.57300        29.960700        17.317700
       407.05200        30.203600        17.311100
       413.63500        30.456500        17.304500
       420.32600        30.736000        17.297900
       427.12400        31.052500        17.248500
       434.03200        31.328800        17.141500
       441.05200        31.576300        17.035100
       448.18600        31.808300        16.929400
       455.43500        32.029100        16.824300
       462.80200        32.241100        16.719900
       470.28700        32.445800        16.616200
       477.89400        32.644200        16.513100
       485.62300        32.837300        16.410600
       493.47800        33.025500        16.308700
       501.45900        33.209500        16.207500
       509.57000        33.389800        16.106900
       517.81200        33.566900        16.007000
       526.18700        33.741400        15.907700
       534.69800        33.914700        15.808900
       543.34600        34.085400        15.707800
       552.13400        34.253700        15.607200
       561.06500        34.420700        15.507300
       570.13900        34.588000        15.408000
       579.36100        34.758300        15.309300
       588.73200        34.937900        15.211300
       598.25400        35.142500        15.084900
       607.93000        35.320100        14.921300
       617.76300        35.466500        14.759300
       627.75500        35.599200        14.599200
       637.90800        35.720100        14.440800
       648.22600        35.830700        14.284100
       658.71100        35.932000        14.129100
       669.36500        36.024500        13.975700
       680.19100        36.108700        13.824100
       691.19300        36.184800        13.674100
       702.37200        36.253300        13.525700
       713.73300        36.314200        13.378900
       725.27700        36.367700        13.233800
       737.00800        36.414000        13.090200
       748.92800        36.453500        12.948100
       761.04200        36.486800        12.807600
       773.35100        36.515300        12.668600
       785.85900        36.548800        12.531200
       798.57000        36.561900        12.361900
       811.48600        36.555300        12.204200
       824.61100        36.535500        12.048500
       837.94900        36.503400        11.894700
       851.50200        36.458600        11.740900
       865.27400        36.399900        11.586700
       879.26900        36.324300        11.432400
       893.49100        36.231800        11.280200
       907.94300        36.122600        11.130000
       922.62800        35.997300        10.981600
       937.55100        35.851700        10.829600
       952.71500        35.682900        10.678100
       968.12400        35.487900        10.527300
       983.78300        35.265400        10.378500
       999.69500        35.013500        10.231100
       1015.8600        34.730100        10.085000
       1032.2900        34.406900        9.9335000
       1048.9900        34.037000        9.7821100
       1065.9600        33.611400        9.6307500
       1083.2000        33.122300        9.4818900
       1100.7200        32.558800        9.3353700
       1118.5200        31.905300        9.1911400
       1136.6100        31.140500        9.0490000
       1155.0000        30.233900        8.9090900
       1173.6800        29.140300        8.7713900
       1192.6600        27.789000        8.6357800
       1211.9500        26.060500        8.5023300
       1231.5500        23.728400        8.3710100
       1251.4700        20.281400        8.2424100
       1271.7200        14.079500        8.1158400
       1292.2900       -27.457700        7.9912000
       1292.5000       -39.062900        7.9899200
       1292.7000       -39.040300        39.824700
       1313.1900        15.886600        38.927200
       1334.4300        23.648600        38.032300
       1356.0100        28.284800        37.157900
       1377.9400        31.604900        36.303200
       1400.2300        34.179200        35.468200
       1422.8800        36.263800        34.652700
       1445.8900        37.995300        33.855700
       1469.2800        39.454500        33.077500
       1493.0400        40.691500        32.317900
       1517.1900        41.739700        31.578200
       1541.7300        42.617300        30.855900
       1566.6700        43.327800        30.150100
       1592.0100        43.856100        29.460300
       1617.7600        44.149300        28.786300
       1643.9200        44.028100        28.127700
       1670.5100        41.974900        27.484100
       1675.5000        36.579400        27.366100
       1675.7000        36.597000        31.928400
       1697.5300        44.815500        31.394000
       1724.9900        46.535200        30.743900
       1752.8900        47.639900        30.106900
       1781.2400        48.440300        29.483200
       1810.0500        48.949200        28.872900
       1839.3200        48.201100        28.275200
       1841.7000        46.480400        28.227700
       1841.9000        46.496500        30.074700
       1869.0700        50.408300        29.464700
       1899.3000        51.465800        28.810600
       1930.0200        52.250500        28.171000
       1961.2400        52.878900        27.545600
       1992.9600        53.365800        26.933900
       2025.2000        53.588100        26.342500
       2046.7000        52.484300        25.960400
       2046.9000        52.498900        27.061600
       2057.9500        53.935700        26.873700
       2091.2400        54.891000        26.321500
       2125.0600        55.548300        25.776200
       2159.4300        56.105600        25.239000
       2194.3600        56.602400        24.708900
       2229.8500        57.053200        24.186000
       2265.9200        57.466400        23.671200
       2302.5700        57.847500        23.164200
       2339.8100        58.200700        22.665600
       2377.6600        58.528700        22.174600
       2416.1100        58.833200        21.691800
       2455.1900        59.116800        21.217400
       2494.9000        59.380600        20.750500
       2535.2600        59.625800        20.292100
       2576.2600        59.854400        19.842100
       2617.9300        60.067100        19.399800
       2660.2700        60.264500        18.965500
       2703.3000        60.447700        18.539300
       2747.0300        60.617300        18.121300
       2791.4600        60.774500        17.711500
       2836.6100        60.920300        17.309700
       2882.4900        61.054500        16.915100
       2929.1100        61.178200        16.529100
       2976.4800        61.291900        16.150100
       3024.6300        61.396200        15.779100
       3073.5500        61.491100        15.414700
       3123.2600        61.576800        15.058600
       3173.7800        61.654800        14.710200
       3225.1100        61.725500        14.368700
       3277.2700        61.788200        14.033400
       3330.2800        61.843400        13.706300
       3384.1500        61.892300        13.386100
       3438.8800        61.934700        13.072500
       3494.5000        61.970900        12.765700
       3551.0200        62.001200        12.465600
       3608.4600        62.026000        12.172000
       3666.8200        62.045200        11.884800
       3726.1300        62.059400        11.604000
       3786.4000        62.068500        11.329300
       3847.6400        62.072900        11.060700
       3909.8700        62.072600        10.798100
       3973.1100        62.067800        10.541500
       4037.3800        62.058900        10.290600
       4102.6800        62.045800        10.045400
       4169.0300        62.028500        9.8056000
       4236.4600        62.007200        9.5713800
       4304.9800        61.982200        9.3425800
       4374.6200        61.953500        9.1188400
