;  Atomic scattering factors for Er.
;   
;  Concatenation of data from CXRO <http://www-cxro.lbl.gov>
;  and LLNL <http://www-phys.llnl.gov/V_Div/scattering/asf.html>
;  
;  E (eV) f1 f2
;---------------
       10.000000       -9999.0000       0.18332600
       10.161700       -9999.0000       0.18626500
       10.326100       -9999.0000       0.18925100
       10.493100       -9999.0000       0.19228600
       10.662800       -9999.0000       0.19536800
       10.835300       -9999.0000       0.19850100
       11.010600       -9999.0000       0.20168300
       11.188600       -9999.0000       0.20738700
       11.369600       -9999.0000       0.21398700
       11.553500       -9999.0000       0.22079600
       11.740400       -9999.0000       0.22782300
       11.930300       -9999.0000       0.23507200
       12.123200       -9999.0000       0.24255300
       12.319300       -9999.0000       0.25043200
       12.518600       -9999.0000       0.25859300
       12.721000       -9999.0000       0.26702000
       12.926800       -9999.0000       0.27572100
       13.135900       -9999.0000       0.28470600
       13.348300       -9999.0000       0.29398400
       13.564200       -9999.0000       0.30354600
       13.783600       -9999.0000       0.31245000
       14.006600       -9999.0000       0.32161500
       14.233100       -9999.0000       0.33105000
       14.463300       -9999.0000       0.34076100
       14.697300       -9999.0000       0.35075700
       14.935000       -9999.0000       0.36122700
       15.176500       -9999.0000       0.37221100
       15.422000       -9999.0000       0.38352800
       15.671400       -9999.0000       0.39519000
       15.924900       -9999.0000       0.40720600
       16.182500       -9999.0000       0.41958800
       16.444200       -9999.0000       0.43234600
       16.710200       -9999.0000       0.44550300
       16.980500       -9999.0000       0.45919700
       17.255100       -9999.0000       0.47331100
       17.534200       -9999.0000       0.48786000
       17.817800       -9999.0000       0.50285500
       18.106000       -9999.0000       0.51831200
       18.398900       -9999.0000       0.53424400
       18.696400       -9999.0000       0.55066500
       18.998800       -9999.0000       0.56583100
       19.306100       -9999.0000       0.58102300
       19.618400       -9999.0000       0.59662200
       19.935700       -9999.0000       0.61264100
       20.258200       -9999.0000       0.62909000
       20.585800       -9999.0000       0.64708600
       20.918800       -9999.0000       0.66837800
       21.257100       -9999.0000       0.69037200
       21.600900       -9999.0000       0.71308800
       21.950300       -9999.0000       0.73655200
       22.305300       -9999.0000       0.76078900
       22.666100       -9999.0000       0.80836800
       23.032700       -9999.0000       0.86646700
       23.405300       -9999.0000       0.92874100
       23.783800       -9999.0000        1.0171200
       24.168500       -9999.0000        1.1231700
       24.559400       -9999.0000        1.2552900
       24.956600       -9999.0000        1.4614600
       25.360300       -9999.0000        1.8416700
       25.770500       -9999.0000        2.7600400
       26.187300       -9999.0000        5.1335300
       26.610900       -9999.0000        6.9457800
       27.041300       -9999.0000        7.8796100
       27.478600       -9999.0000        8.8328300
       27.923100       -9999.0000        9.8356900
       28.374700       -9999.0000        10.938400
       28.833700       -9999.0000        11.662100
       29.300000       -2.7306300        12.261000
       29.773900       -1.9519100        13.052500
       30.255500      -0.74226000        13.583500
       30.744900       0.25029300        13.802400
       31.242100        1.1292600        13.827700
       31.747500        1.8886300        13.846800
       32.260900        2.5996600        13.865900
       32.782700        3.3420000        13.885100
       33.313000        4.2365100        13.889800
       33.851800        4.9806600        13.326900
       34.399300        5.3201300        12.871900
       34.955700        5.6206000        12.604400
       35.521100        5.8793600        12.346100
       36.095600        6.1164100        12.189000
       36.679400        6.3564700        12.034000
       37.272700        6.5863800        11.919100
       37.875500        6.8416100        11.817100
       38.488200        7.1283500        11.706000
       39.110700        7.3913200        11.516100
       39.743200        7.6018500        11.329400
       40.386100        7.7609700        11.145700
       41.039300        7.9051700        11.042100
       41.703100        8.0909800        10.949400
       42.377600        8.3354700        10.823600
       43.063000        8.5191500        10.579500
       43.759500        8.6091200        10.341000
       44.467300        8.5779500        10.145500
       45.186500        8.5816600        10.109600
       45.917400        8.6415900        10.073800
       46.660000        8.7247800        10.038200
       47.414700        8.8313800        9.9963400
       48.181600        8.9323500        9.9277000
       48.960900        9.0220700        9.8595500
       49.752800        9.1052400        9.7918500
       50.557600        9.1820600        9.7246200
       51.375300        9.2518300        9.6578600
       52.206200        9.3131600        9.5915400
       53.050600        9.3605500        9.5256900
       53.908700        9.3781900        9.4714900
       54.780600        9.4082900        9.4603900
       55.666700        9.4544200        9.4493100
       56.567000        9.5060400        9.4382500
       57.482000        9.5605500        9.4271900
       58.411700        9.6174100        9.4161500
       59.356400        9.6742200        9.4006500
       60.316500        9.7273900        9.3845700
       61.292100        9.7769300        9.3685300
       62.283400        9.8223400        9.3525100
       63.290800        9.8623400        9.3365300
       64.314500        9.8928800        9.3205600
       65.354700        9.9010700        9.3139700
       66.411800        9.9194200        9.3364600
       67.485900        9.9480500        9.3590000
       68.577500        9.9788400        9.3816000
       69.686700        10.008900        9.4042500
       70.813800        10.033900        9.4269600
       71.959100        10.041900        9.4497200
       73.123000        10.052800        9.5161300
       74.305700        10.083500        9.5850300
       75.507600        10.124600        9.6544300
       76.728900        10.173200        9.7243400
       77.969900        10.228200        9.7947500
       79.231000        10.289500        9.8656700
       80.512500        10.357600        9.9371100
       81.814700        10.433800        10.009100
       83.138000        10.524300        10.081500
       84.482700        10.654800        10.135600
       85.849100        10.758500        10.136000
       87.237700        10.835000        10.136500
       88.648700        10.897700        10.137000
       90.082500        10.948400        10.137500
       91.539500        10.986900        10.138000
       93.020100        11.011300        10.138400
       94.524600        11.012700        10.138900
       96.053500        10.966500        10.177300
       97.607100        10.954300        10.258800
       99.185800        10.963300        10.341000
       100.79000        10.978400        10.423800
       102.42000        10.997000        10.507300
       104.07700        11.017100        10.591400
       105.76000        11.036700        10.676200
       107.47100        11.052100        10.761700
       109.20900        11.047200        10.859300
       110.97500        11.060600        10.985600
       112.77000        11.091500        11.113400
       114.59400        11.134500        11.242800
       116.44800        11.200700        11.371900
       118.33100        11.264800        11.464900
       120.24500        11.316500        11.558600
       122.19000        11.363400        11.653000
       124.16600        11.408100        11.748300
       126.17500        11.452100        11.844300
       128.21500        11.497800        11.941100
       130.28900        11.550100        12.038600
       132.39700        11.620800        12.137000
       134.53800        11.763100        12.236200
       136.71400        11.896100        12.112000
       138.92500        11.905300        11.956000
       141.17200        11.826400        11.802000
       143.45600        11.749300        11.624800
       145.77600        11.482400        11.212300
       148.13400        10.978800        10.814500
       150.53000        10.410600        10.430700
       152.96400        9.2411300        9.3399400
       155.43900        6.6010900        7.9738300
       157.95300       0.69930200        7.4630000
       160.50700       -18.009100        18.490300
       163.10300        11.618500        41.495400
       165.74200        17.952000        26.925100
       168.42200        16.747000        23.711700
       171.14600        16.571800        21.619900
       173.91500        16.394000        21.203900
       176.72700        16.626100        20.843600
       179.58600        16.861800        20.489400
       182.49100        17.078400        20.333700
       185.44200        17.362800        20.222700
       188.44200        17.682000        20.112300
       191.48900        17.997800        20.002600
       194.58700        18.301800        19.893400
       197.73400        18.586300        19.784900
       200.93200        18.819900        19.676900
       204.18200        19.053600        19.652900
       207.48500        19.312500        19.630700
       210.84000        19.578400        19.608500
       214.25100        19.845900        19.586400
       217.71600        20.113000        19.564300
       221.23700        20.378600        19.542200
       224.81600        20.642200        19.520100
       228.45200        20.903400        19.498100
       232.14700        21.162400        19.476100
       235.90200        21.419200        19.454100
       239.71700        21.674700        19.432100
       243.59500        21.936900        19.407900
       247.53500        22.189600        19.366800
       251.53800        22.429300        19.325800
       255.60700        22.660100        19.284800
       259.74100        22.881800        19.244000
       263.94200        23.093700        19.203200
       268.21100        23.293500        19.162500
       272.54900        23.477100        19.121900
       276.95700        23.623400        19.081400
       281.43700        23.720500        19.103800
       285.98900        23.873600        19.197600
       290.61500        24.064200        19.292000
       295.31500        24.277500        19.386800
       300.09200        24.509400        19.482100
       304.94500        24.758700        19.577800
       309.87800        25.026600        19.674100
       314.89000        25.315700        19.770700
       319.98300        25.631700        19.867900
       325.15800        26.048400        19.943100
       330.41800        26.427100        19.884500
       335.76200        26.745700        19.826100
       341.19200        27.043300        19.767900
       346.71100        27.326200        19.709800
       352.31900        27.597800        19.651900
       358.01700        27.859700        19.594200
       363.80800        28.112700        19.536600
       369.69200        28.356100        19.479200
       375.67200        28.584500        19.422000
       381.74800        28.801400        19.389200
       387.92200        29.028300        19.368600
       394.19700        29.264500        19.348000
       400.57300        29.503800        19.327500
       407.05200        29.745600        19.306900
       413.63500        29.989600        19.286400
       420.32600        30.236200        19.265900
       427.12400        30.485300        19.245400
       434.03200        30.737700        19.225000
       441.05200        30.993900        19.204600
       448.18600        31.255000        19.184200
       455.43500        31.522600        19.163800
       462.80200        31.799500        19.143400
       470.28700        32.090900        19.123100
       477.89400        32.433600        19.074600
       485.62300        32.746100        18.966100
       493.47800        33.022800        18.858200
       501.45900        33.288100        18.750900
       509.57000        33.545200        18.644300
       517.81200        33.796500        18.538200
       526.18700        34.043600        18.432700
       534.69800        34.288500        18.327900
       543.34600        34.533200        18.223700
       552.13400        34.779600        18.120000
       561.06500        35.052700        18.016900
       570.13900        35.318300        17.859800
       579.36100        35.554600        17.699700
       588.73200        35.776500        17.539200
       598.25400        35.987600        17.379100
       607.93000        36.190700        17.220400
       617.76300        36.388800        17.063200
       627.75500        36.588700        16.906200
       637.90800        36.788900        16.735500
       648.22600        36.980100        16.544300
       658.71100        37.141700        16.340800
       669.36500        37.274100        16.139800
       680.19100        37.382300        15.968900
       691.19300        37.496900        15.820800
       702.37200        37.635900        15.678100
       713.73300        37.781000        15.510800
       725.27700        37.905600        15.327700
       737.00800        38.015000        15.147000
       748.92800        38.114100        14.968400
       761.04200        38.205100        14.791600
       773.35100        38.290500        14.615000
       785.85900        38.368700        14.433500
       798.57000        38.432400        14.248500
       811.48600        38.483500        14.065900
       824.61100        38.523800        13.885600
       837.94900        38.554600        13.707500
       851.50200        38.575700        13.529800
       865.27400        38.586500        13.352000
       879.26900        38.584300        13.174600
       893.49100        38.570100        12.999700
       907.94300        38.544800        12.827000
       922.62800        38.510800        12.656500
       937.55100        38.463200        12.479000
       952.71500        38.399200        12.301400
       968.12400        38.316200        12.124100
       983.78300        38.215800        11.949700
       999.69500        38.098700        11.776300
       1015.8600        37.965800        11.603900
       1032.2900        37.808400        11.421300
       1048.9900        37.622600        11.239300
       1065.9600        37.405000        11.057800
       1083.2000        37.154300        10.879300
       1100.7200        36.868100        10.703700
       1118.5200        36.542500        10.530800
       1136.6100        36.172700        10.360800
       1155.0000        35.752100        10.193600
       1173.6800        35.272400        10.029000
       1192.6600        34.722900        9.8670200
       1211.9500        34.089200        9.7077000
       1231.5500        33.352000        9.5509500
       1251.4700        32.484300        9.3971000
       1271.7200        31.447100        9.2462100
       1292.2900        30.181200        9.0983300
       1313.1900        28.588600        8.9525900
       1334.4300        26.492600        8.8093000
       1356.0100        23.526000        8.6684800
       1377.9400        18.694500        8.5297100
       1400.2300        6.7189400        8.3931400
       1409.2000       -38.995000        8.3394000
       1409.4000       -38.970200        40.588700
       1422.8800        12.029600        40.036700
       1445.8900        22.872700        39.123100
       1469.2800        28.412800        38.230600
       1493.0400        32.181000        37.359000
       1517.1900        35.030700        36.510700
       1541.7300        37.306100        35.682100
       1566.6700        39.180400        34.872300
       1592.0100        40.752400        34.081100
       1617.7600        42.082600        33.307600
       1643.9200        43.207700        32.551400
       1670.5100        44.148300        31.812500
       1697.5300        44.909900        31.090700
       1724.9900        45.477200        30.385500
       1752.8900        45.789500        29.696100
       1781.2400        45.626400        29.022300
       1810.0500        42.038100        28.363800
       1811.7000        37.831700        28.326800
       1811.9000        37.848900        33.089200
       1839.3200        47.004400        32.364900
       1869.0700        48.707100        31.608800
       1899.3000        49.832400        30.870500
       1930.0200        50.651900        30.149400
       1961.2400        51.196700        29.445300
       1992.9600        51.098900        28.757600
       2005.7000        48.621900        28.489100
       2005.9000        48.638900        30.485500
       2025.2000        52.129800        30.071900
       2057.9500        53.348500        29.391500
       2091.2400        54.170900        28.726400
       2125.0600        54.802900        28.076300
       2159.4300        55.262000        27.441400
       2194.3600        55.280300        26.820200
       2206.4000        53.907000        26.611600
       2206.6000        53.920100        27.796800
       2229.8500        56.118500        27.413400
       2265.9200        56.965100        26.836800
       2302.5700        57.608400        26.269500
       2339.8100        58.161400        25.710900
       2377.6600        58.655400        25.162000
       2416.1100        59.103900        24.621700
       2455.1900        59.515200        24.091200
       2494.9000        59.894500        23.569100
       2535.2600        60.244800        23.056100
       2576.2600        60.569600        22.552700
       2617.9300        60.871400        22.058000
       2660.2700        61.151600        21.572000
       2703.3000        61.412100        21.095500
       2747.0300        61.654300        20.627500
       2791.4600        61.879400        20.168900
       2836.6100        62.089200        19.719000
       2882.4900        62.283700        19.276900
       2929.1100        62.463600        18.843900
       2976.4800        62.631200        18.420100
       3024.6300        62.786500        18.003500
       3073.5500        62.929000        17.595600
       3123.2600        63.061200        17.196700
       3173.7800        63.183000        16.804800
       3225.1100        63.294700        16.421500
       3277.2700        63.396800        16.045600
       3330.2800        63.490200        15.678100
       3384.1500        63.575300        15.317700
       3438.8800        63.651800        14.964900
       3494.5000        63.721300        14.620200
       3551.0200        63.783800        14.282100
       3608.4600        63.838800        13.950700
       3666.8200        63.886900        13.626800
       3726.1300        63.928800        13.309900
       3786.4000        63.964800        12.999800
       3847.6400        63.995000        12.696400
       3909.8700        64.019700        12.399700
       3973.1100        64.039000        12.109300
       4037.3800        64.053300        11.825200
       4102.6800        64.062700        11.547300
       4169.0300        64.067300        11.275500
       4236.4600        64.067400        11.009800
       4304.9800        64.063100        10.749900
       4374.6200        64.054500        10.495600
