;  Atomic scattering factors for Eu.
;   
;  Concatenation of data from CXRO <http://www-cxro.lbl.gov>
;  and LLNL <http://www-phys.llnl.gov/V_Div/scattering/asf.html>
;  
;  E (eV) f1 f2
;---------------
       10.000000       -9999.0000       0.18583400
       10.161700       -9999.0000       0.19489000
       10.326100       -9999.0000       0.20438700
       10.493100       -9999.0000       0.21434600
       10.662800       -9999.0000       0.22479100
       10.835300       -9999.0000       0.23529300
       11.010600       -9999.0000       0.24598100
       11.188600       -9999.0000       0.25715500
       11.369600       -9999.0000       0.26817200
       11.553500       -9999.0000       0.27854500
       11.740400       -9999.0000       0.28931900
       11.930300       -9999.0000       0.30051000
       12.123200       -9999.0000       0.31081900
       12.319300       -9999.0000       0.32112700
       12.518600       -9999.0000       0.33177700
       12.721000       -9999.0000       0.34304400
       12.926800       -9999.0000       0.35577800
       13.135900       -9999.0000       0.36898400
       13.348300       -9999.0000       0.38268000
       13.564200       -9999.0000       0.39672700
       13.783600       -9999.0000       0.40829500
       14.006600       -9999.0000       0.42124800
       14.233100       -9999.0000       0.43461300
       14.463300       -9999.0000       0.44840200
       14.697300       -9999.0000       0.46240700
       14.935000       -9999.0000       0.47662200
       15.176500       -9999.0000       0.49127300
       15.422000       -9999.0000       0.50637500
       15.671400       -9999.0000       0.52094800
       15.924900       -9999.0000       0.53382100
       16.182500       -9999.0000       0.54701300
       16.444200       -9999.0000       0.56053100
       16.710200       -9999.0000       0.57532100
       16.980500       -9999.0000       0.59239900
       17.255100       -9999.0000       0.60998300
       17.534200       -9999.0000       0.62809000
       17.817800       -9999.0000       0.64679200
       18.106000       -9999.0000       0.66616600
       18.398900       -9999.0000       0.68612100
       18.696400       -9999.0000       0.70667200
       18.998800       -9999.0000       0.72993000
       19.306100       -9999.0000       0.75732700
       19.618400       -9999.0000       0.78575200
       19.935700       -9999.0000       0.82809300
       20.258200       -9999.0000       0.88387500
       20.585800       -9999.0000       0.96902600
       20.918800       -9999.0000        1.1304200
       21.257100       -9999.0000        1.3297500
       21.600900       -9999.0000        1.7092900
       21.950300       -9999.0000        2.0542500
       22.305300       -9999.0000        2.5696300
       22.666100       -9999.0000        3.1339500
       23.032700       -9999.0000        3.6644600
       23.405300       -9999.0000        4.5217000
       23.783800       -9999.0000        5.2034300
       24.168500       -9999.0000        7.0790100
       24.559400       -9999.0000        9.0533600
       24.956600       -9999.0000        10.263300
       25.360300       -9999.0000        11.545700
       25.770500       -9999.0000        12.784400
       26.187300       -9999.0000        13.815900
       26.610900       -9999.0000        14.492800
       27.041300       -9999.0000        15.166900
       27.478600       -9999.0000        15.785900
       27.923100       -9999.0000        16.430200
       28.374700       -9999.0000        16.626400
       28.833700       -9999.0000        16.742100
       29.300000        2.9077500        16.653000
       29.773900        3.7845300        16.496400
       30.255500        4.5698300        16.341300
       30.744900        5.3257000        16.187600
       31.242100        6.1086300        16.035400
       31.747500        6.8417800        15.664200
       32.260900        7.4359900        15.293800
       32.782700        7.9498600        14.932100
       33.313000        8.4065400        14.585700
       33.851800        8.8212700        14.248000
       34.399300        9.2001100        13.918100
       34.955700        9.5488800        13.595800
       35.521100        9.8754200        13.281000
       36.095600        10.196100        12.954400
       36.679400        10.465400        12.602300
       37.272700        10.686000        12.259700
       37.875500        10.853800        11.933700
       38.488200        11.017400        11.675300
       39.110700        11.201600        11.422500
       39.743200        11.425200        11.143600
       40.386100        11.580900        10.766200
       41.039300        11.636700        10.401600
       41.703100        11.578500        10.141900
       42.377600        11.595600        9.9646300
       43.063000        11.644400        9.7904700
       43.759500        11.705600        9.6134700
       44.467300        11.759000        9.4261800
       45.186500        11.804300        9.2425300
       45.917400        11.846400        9.0580300
       46.660000        11.868300        8.8635500
       47.414700        11.863100        8.6732600
       48.181600        11.813200        8.5017700
       48.960900        11.775500        8.4042600
       49.752800        11.761200        8.3078700
       50.557600        11.757200        8.2125800
       51.375300        11.758800        8.1183900
       52.206200        11.758600        8.0143300
       53.050600        11.749300        7.9112900
       53.908700        11.729200        7.8095600
       54.780600        11.688400        7.7091400
       55.666700        11.631600        7.6536400
       56.567000        11.597900        7.6120900
       57.482000        11.575000        7.5707700
       58.411700        11.553900        7.5296800
       59.356400        11.529200        7.4888000
       60.316500        11.505700        7.4605500
       61.292100        11.485800        7.4324300
       62.283400        11.464600        7.4044400
       63.290800        11.436200        7.3765500
       64.314500        11.404200        7.3666100
       65.354700        11.379900        7.3610300
       66.411800        11.356100        7.3554600
       67.485900        11.324500        7.3499000
       68.577500        11.282600        7.3703700
       69.686700        11.263900        7.4070200
       70.813800        11.259500        7.4438500
       71.959100        11.268400        7.4808800
       73.123000        11.294000        7.5088400
       74.305700        11.320700        7.5128700
       75.507600        11.335800        7.5113400
       76.728900        11.344100        7.5098100
       77.969900        11.349000        7.5082700
       79.231000        11.351100        7.5067400
       80.512500        11.351100        7.5052100
       81.814700        11.349400        7.5036800
       83.138000        11.346900        7.5021500
       84.482700        11.346100        7.5006200
       85.849100        11.356600        7.4919200
       87.237700        11.352300        7.4564600
       88.648700        11.332100        7.4211600
       90.082500        11.300300        7.3860300
       91.539500        11.259400        7.3510600
       93.020100        11.210700        7.3162600
       94.524600        11.157100        7.2816200
       96.053500        11.109700        7.2471500
       97.607100        11.057300        7.1708100
       99.185800        10.966000        7.0814600
       100.79000        10.848600        6.9932100
       102.42000        10.712200        6.9060600
       104.07700        10.572100        6.8200000
       105.76000        10.453300        6.6663500
       107.47100        10.234500        6.4564200
       109.20900        9.9435100        6.2531000
       110.97500        9.6106100        6.0047200
       112.77000        9.1424300        5.7192000
       114.59400        8.5587900        5.4472600
       116.44800        7.8892300        5.1571400
       118.33100        7.0164000        4.8313700
       120.24500        5.9149500        4.5261600
       122.19000        4.5529600        4.2645700
       124.16600        2.8831500        4.0348200
       126.17500       0.76346700        3.8064600
       128.21500       -2.1101000        3.5545200
       130.28900       -6.4800000        3.3192700
       132.39700       -16.332800        4.3631400
       134.53800       -25.702400        15.048500
       136.71400       -34.636400        41.361100
       138.92500       -9.7149000        66.174800
       141.17200        17.120800        57.802700
       143.45600        28.564400        42.062000
       145.77600        26.172300        31.492300
       148.13400        24.344200        27.977500
       150.53000        22.814700        25.512500
       152.96400        22.230300        24.705900
       155.43900        22.337000        23.924800
       157.95300        22.545700        23.183200
       160.50700        22.792800        22.488700
       163.10300        23.056800        21.874700
       165.74200        23.332100        21.287300
       168.42200        23.603500        20.744900
       171.14600        23.874900        20.222600
       173.91500        24.130600        19.713400
       176.72700        24.350100        19.217000
       179.58600        24.555300        18.776300
       182.49100        24.763400        18.350300
       185.44200        24.963300        17.933900
       188.44200        25.152000        17.526900
       191.48900        25.330300        17.129200
       194.58700        25.518200        16.732300
       197.73400        25.669300        16.301900
       200.93200        25.777200        15.882500
       204.18200        25.852600        15.474000
       207.48500        25.894800        15.075900
       210.84000        25.897900        14.688100
       214.25100        25.814400        14.310300
       217.71600        25.706500        14.080700
       221.23700        25.661400        13.892300
       224.81600        25.641400        13.706500
       228.45200        25.630200        13.523100
       232.14700        25.620200        13.342100
       235.90200        25.606100        13.163600
       239.71700        25.582700        12.987500
       243.59500        25.541700        12.813700
       247.53500        25.456000        12.642300
       251.53800        25.351200        12.573700
       255.60700        25.292000        12.536500
       259.74100        25.267100        12.499300
       263.94200        25.254400        12.462200
       268.21100        25.248700        12.425300
       272.54900        25.245400        12.388400
       276.95700        25.225600        12.358800
       281.43700        25.221000        12.357100
       285.98900        25.232400        12.355300
       290.61500        25.249700        12.353500
       295.31500        25.269600        12.351700
       300.09200        25.288800        12.350000
       304.94500        25.302900        12.348200
       309.87800        25.298600        12.346400
       314.89000        25.265600        12.396500
       319.98300        25.271600        12.488700
       325.15800        25.314200        12.581700
       330.41800        25.374600        12.675300
       335.76200        25.450700        12.769600
       341.19200        25.541500        12.864600
       346.71100        25.648900        12.960400
       352.31900        25.776100        13.049300
       358.01700        25.907700        13.127000
       363.80800        26.046100        13.204500
       369.69200        26.194300        13.282500
       375.67200        26.355800        13.361100
       381.74800        26.536800        13.440200
       387.92200        26.751200        13.507800
       394.19700        26.991700        13.548800
       400.57300        27.234800        13.525500
       407.05200        27.439200        13.476800
       413.63500        27.622300        13.428100
       420.32600        27.793400        13.379600
       427.12400        27.956300        13.331300
       434.03200        28.113400        13.283200
       441.05200        28.266500        13.235300
       448.18600        28.421900        13.185900
       455.43500        28.572600        13.128600
       462.80200        28.717300        13.065700
       470.28700        28.853900        13.000000
       477.89400        28.983600        12.934800
       485.62300        29.108600        12.869800
       493.47800        29.229800        12.805100
       501.45900        29.348000        12.740800
       509.57000        29.464500        12.676700
       517.81200        29.582800        12.611300
       526.18700        29.701200        12.540200
       534.69800        29.815800        12.458200
       543.34600        29.919100        12.371000
       552.13400        30.016500        12.284400
       561.06500        30.108400        12.191300
       570.13900        30.191200        12.095300
       579.36100        30.263700        11.998000
       588.73200        30.328000        11.901300
       598.25400        30.384900        11.805300
       607.93000        30.435100        11.709900
       617.76300        30.479500        11.615300
       627.75500        30.521600        11.520800
       637.90800        30.559900        11.418800
       648.22600        30.589000        11.305200
       658.71100        30.596600        11.184600
       669.36500        30.582000        11.065400
       680.19100        30.547700        10.964600
       691.19300        30.512100        10.878000
       702.37200        30.485800        10.794500
       713.73300        30.456800        10.695400
       725.27700        30.407800        10.586200
       737.00800        30.341200        10.478100
       748.92800        30.259400        10.371200
       761.04200        30.163400        10.265200
       773.35100        30.054000        10.158000
       785.85900        29.928100        10.044800
       798.57000        29.776600        9.9269100
       811.48600        29.599900        9.8104900
       824.61100        29.397900        9.6953600
       837.94900        29.169400        9.5814900
       851.50200        28.911600        9.4667100
       865.27400        28.620400        9.3506400
       879.26900        28.289000        9.2336600
       893.49100        27.913300        9.1180700
       907.94300        27.488200        9.0039600
       922.62800        27.008000        8.8913300
       937.55100        26.459900        8.7738800
       952.71500        25.829500        8.6565600
       968.12400        25.099600        8.5396000
       983.78300        24.248200        8.4239700
       999.69500        23.244500        8.3095300
       1015.8600        22.043600        8.1962600
       1032.2900        20.573900        8.0805600
       1048.9900        18.721400        7.9653700
       1065.9600        16.283600        7.8506500
       1083.2000        12.847000        7.7376000
       1100.7200        7.3298300        7.6260700
       1118.5200       -5.3985500        7.5160000
       1127.4000       -60.848900        7.4623600
       1127.6000       -60.813900        46.744800
       1136.6100       -3.7485700        46.226200
       1155.0000        10.962200        45.198400
       1173.6800        18.106500        44.193600
       1192.6600        22.931800        43.210700
       1211.9500        26.590000        42.249800
       1231.5500        29.533200        41.310300
       1251.4700        31.987800        40.393000
       1271.7200        34.084500        39.498100
       1292.2900        35.908100        38.625300
       1313.1900        37.513100        37.771400
       1334.4300        38.937500        36.936600
       1356.0100        40.209900        36.120600
       1377.9400        41.350900        35.322000
       1400.2300        42.375700        34.541100
       1422.8800        43.295700        33.777700
       1445.8900        44.118500        33.031500
       1469.2800        44.846200        32.301700
       1480.5000        45.171200        31.961300
       1480.7000        45.175500        31.937600
       1493.0400        45.453500        31.604300
       1517.1900        46.008800        30.969700
       1541.7300        46.488500        30.347800
       1566.6700        46.848700        29.738100
       1592.0100        46.951000        29.140900
       1613.8000        43.824400        28.644200
       1614.0000        43.830700        30.775900
       1617.7600        46.412000        30.675500
       1643.9200        48.373400        29.991500
       1670.5100        49.288500        29.322700
       1697.5300        49.972900        28.668800
       1724.9900        50.517500        28.029600
       1752.8900        50.931100        27.404300
       1781.2400        51.121000        26.792900
       1799.9000        49.525600        26.403000
       1800.1000        49.528800        27.545900
       1810.0500        51.371700        27.343200
       1839.3200        52.311900        26.761600
       1869.0700        52.926900        26.192600
       1899.3000        53.440500        25.636500
       1930.0200        53.894500        25.091500
       1961.2400        54.305600        24.558000
       1992.9600        54.678700        24.035800
       2025.2000        55.032100        23.534500
       2057.9500        55.364500        23.025900
       2091.2400        55.670000        22.526100
       2125.0600        55.952500        22.035300
       2159.4300        56.215000        21.553200
       2194.3600        56.458400        21.079800
       2229.8500        56.684800        20.616000
       2265.9200        56.895500        20.160600
       2302.5700        57.091400        19.714400
       2339.8100        57.273400        19.276600
       2377.6600        57.442700        18.847700
       2416.1100        57.599900        18.426900
       2455.1900        57.745500        18.014400
       2494.9000        57.880100        17.609700
       2535.2600        58.003900        17.213100
       2576.2600        58.118000        16.825100
       2617.9300        58.223000        16.444900
       2660.2700        58.318900        16.072300
       2703.3000        58.406500        15.707700
       2747.0300        58.486500        15.350600
       2791.4600        58.558700        15.000300
       2836.6100        58.623300        14.658000
       2882.4900        58.681500        14.323200
       2929.1100        58.733100        13.994800
       2976.4800        58.778100        13.673700
       3024.6300        58.817500        13.359500
       3073.5500        58.851100        13.051700
       3123.2600        58.878900        12.750700
       3173.7800        58.901400        12.456400
       3225.1100        58.919500        12.168800
       3277.2700        58.932500        11.886600
       3330.2800        58.940600        11.611200
       3384.1500        58.944600        11.341700
       3438.8800        58.944200        11.078000
       3494.5000        58.939500        10.820000
       3551.0200        58.930800        10.567800
       3608.4600        58.918100        10.321100
       3666.8200        58.901600        10.079900
       3726.1300        58.881400        9.8440100
       3786.4000        58.857500        9.6134000
       3847.6400        58.830000        9.3879100
       3909.8700        58.798900        9.1673900
       3973.1100        58.764300        8.9518200
       4037.3800        58.726200        8.7410800
       4102.6800        58.684700        8.5349500
       4169.0300        58.639500        8.3335000
       4236.4600        58.590800        8.1365200
       4304.9800        58.538600        7.9440800
       4374.6200        58.482700        7.7558500
