;  Atomic scattering factors for F.
;   
;  Concatenation of data from CXRO <http://www-cxro.lbl.gov>
;  and LLNL <http://www-phys.llnl.gov/V_Div/scattering/asf.html>
;  
;  E (eV) f1 f2
;---------------
       10.000000       -9999.0000      0.051647300
       10.161700       -9999.0000      0.056479600
       10.326100       -9999.0000      0.061763900
       10.493100       -9999.0000      0.067542700
       10.662800       -9999.0000      0.073862300
       10.835300       -9999.0000      0.080772900
       11.010600       -9999.0000      0.088330300
       11.188600       -9999.0000      0.096594700
       11.369600       -9999.0000       0.10831300
       11.553500       -9999.0000       0.12462100
       11.740400       -9999.0000       0.14767500
       11.930300       -9999.0000       0.18293400
       12.123200       -9999.0000       0.28681900
       12.319300       -9999.0000       0.42732400
       12.518600       -9999.0000       0.52625800
       12.721000       -9999.0000       0.59722900
       12.926800       -9999.0000       0.67627700
       13.135900       -9999.0000       0.75800900
       13.348300       -9999.0000       0.84961800
       13.564200       -9999.0000       0.92183000
       13.783600       -9999.0000       0.98715700
       14.006600       -9999.0000        1.0571100
       14.233100       -9999.0000        1.1320300
       14.463300       -9999.0000        1.2104200
       14.697300       -9999.0000        1.2940800
       14.935000       -9999.0000        1.3835200
       15.176500       -9999.0000        1.4715900
       15.422000       -9999.0000        1.5508800
       15.671400       -9999.0000        1.6344400
       15.924900       -9999.0000        1.7225000
       16.182500       -9999.0000        1.8056800
       16.444200       -9999.0000        1.8901200
       16.710200       -9999.0000        1.9785200
       16.980500       -9999.0000        2.0710300
       17.255100       -9999.0000        2.1596300
       17.534200       -9999.0000        2.2520200
       17.817800       -9999.0000        2.3483600
       18.106000       -9999.0000        2.4488300
       18.398900       -9999.0000        2.5490000
       18.696400       -9999.0000        2.6422200
       18.998800       -9999.0000        2.7388600
       19.306100       -9999.0000        2.8390300
       19.618400       -9999.0000        2.9428700
       19.935700       -9999.0000        3.0087800
       20.258200       -9999.0000        3.0730400
       20.585800       -9999.0000        3.1386800
       20.918800       -9999.0000        3.2057200
       21.257100       -9999.0000        3.2741900
       21.600900       -9999.0000        3.3458900
       21.950300       -9999.0000        3.4201800
       22.305300       -9999.0000        3.4961100
       22.666100       -9999.0000        3.5737300
       23.032700       -9999.0000        3.6534200
       23.405300       -9999.0000        3.7375200
       23.783800       -9999.0000        3.8235500
       24.168500       -9999.0000        3.9115700
       24.559400       -9999.0000        4.0016300
       24.956600       -9999.0000        4.0938600
       25.360300       -9999.0000        4.1882100
       25.770500       -9999.0000        4.2847400
       26.187300       -9999.0000        4.3797500
       26.610900       -9999.0000        4.4599400
       27.041300       -9999.0000        4.5416000
       27.478600       -9999.0000        4.6247700
       27.923100       -9999.0000        4.7094500
       28.374700       -9999.0000        4.7819300
       28.833700       -9999.0000        4.8473000
       29.300000       0.22699600        4.9135600
       29.773900       0.38497700        4.9554700
       30.255500       0.51701200        4.9608800
       30.744900       0.63293000        4.9663000
       31.242100       0.74170200        4.9716900
       31.747500       0.84304100        4.9696100
       32.260900       0.93516100        4.9675200
       32.782700        1.0186900        4.9654400
       33.313000        1.0908700        4.9687700
       33.851800        1.1656400        4.9802800
       34.399300        1.2409000        4.9918100
       34.955700        1.3143200        5.0033600
       35.521100        1.3840900        5.0149500
       36.095600        1.4451700        5.0348700
       36.679400        1.5157100        5.0640200
       37.272700        1.5915800        5.0933300
       37.875500        1.6717100        5.1228200
       38.488200        1.7584600        5.1524700
       39.110700        1.8556500        5.1714800
       39.743200        1.9434300        5.1820800
       40.386100        2.0268500        5.1927000
       41.039300        2.1085800        5.2033500
       41.703100        2.1890700        5.2140200
       42.377600        2.2685200        5.2247100
       43.063000        2.3467400        5.2354200
       43.759500        2.4240300        5.2481300
       44.467300        2.5025400        5.2616400
       45.186500        2.5817300        5.2751900
       45.917400        2.6614800        5.2887900
       46.660000        2.7418100        5.3024100
       47.414700        2.8228000        5.3160700
       48.181600        2.9045000        5.3297600
       48.960900        2.9870300        5.3434900
       49.752800        3.0704800        5.3572500
       50.557600        3.1549700        5.3710600
       51.375300        3.2406200        5.3848900
       52.206200        3.3275600        5.3987600
       53.050600        3.4158800        5.4126700
       53.908700        3.5057200        5.4266100
       54.780600        3.5939400        5.4405900
       55.666700        3.6697500        5.4787700
       56.567000        3.8089400        5.5084400
       57.482000        3.9312900        5.5040800
       58.411700        4.0477100        5.4997800
       59.356400        4.1693200        5.4903900
       60.316500        4.2850700        5.4724200
       61.292100        4.4025100        5.4503800
       62.283400        4.5117500        5.4187000
       63.290800        4.6144500        5.3872200
       64.314500        4.7139600        5.3559600
       65.354700        4.8114800        5.3248500
       66.411800        4.9078000        5.2938700
       67.485900        5.0039000        5.2631400
       68.577500        5.1021000        5.2326600
       69.686700        5.2043300        5.1958300
       70.813800        5.3036600        5.1552300
       71.959100        5.4002600        5.1064600
       73.123000        5.4903900        5.0565000
       74.305700        5.5764300        5.0070000
       75.507600        5.6601100        4.9579000
       76.728900        5.7423800        4.9092800
       77.969900        5.8249000        4.8611200
       79.231000        5.9064000        4.8089300
       80.512500        5.9869600        4.7571800
       81.814700        6.0683200        4.7000000
       83.138000        6.1431700        4.6399500
       84.482700        6.2137500        4.5808800
       85.849100        6.2821100        4.5225600
       87.237700        6.3491600        4.4650100
       88.648700        6.4163100        4.4066200
       90.082500        6.4810200        4.3471400
       91.539500        6.5463800        4.2861500
       93.020100        6.6067100        4.2220800
       94.524600        6.6637400        4.1589400
       96.053500        6.7185400        4.0967000
       97.607100        6.7719700        4.0353800
       99.185800        6.8255200        3.9749700
       100.79000        6.8811400        3.9104700
       102.42000        6.9294300        3.8421000
       104.07700        6.9736600        3.7755300
       105.76000        7.0151100        3.7101100
       107.47100        7.0541800        3.6458300
       109.20900        7.0911800        3.5826800
       110.97500        7.1263600        3.5206000
       112.77000        7.1598300        3.4595900
       114.59400        7.1918200        3.3996600
       116.44800        7.2224600        3.3407600
       118.33100        7.2518600        3.2828700
       120.24500        7.2801700        3.2260100
       122.19000        7.3075500        3.1701100
       124.16600        7.3341200        3.1151700
       126.17500        7.3601500        3.0611900
       128.21500        7.3861000        3.0081600
       130.28900        7.4138000        2.9552100
       132.39700        7.4389400        2.8979800
       134.53800        7.4611300        2.8418800
       136.71400        7.4812300        2.7868600
       138.92500        7.4998100        2.7329000
       141.17200        7.5171000        2.6799900
       143.45600        7.5332500        2.6281000
       145.77600        7.5483800        2.5772200
       148.13400        7.5626000        2.5273400
       150.53000        7.5760600        2.4784400
       152.96400        7.5888300        2.4304700
       155.43900        7.6010900        2.3834000
       157.95300        7.6131700        2.3372200
       160.50700        7.6246700        2.2907700
       163.10300        7.6356200        2.2446700
       165.74200        7.6450000        2.1987700
       168.42200        7.6532900        2.1538700
       171.14600        7.6607600        2.1098700
       173.91500        7.6675000        2.0667600
       176.72700        7.6735800        2.0245000
       179.58600        7.6790800        1.9831100
       182.49100        7.6840600        1.9425800
       185.44200        7.6887000        1.9029100
       188.44200        7.6932200        1.8638400
       191.48900        7.6975600        1.8251500
       194.58700        7.7009700        1.7863900
       197.73400        7.7035600        1.7484300
       200.93200        7.7055200        1.7112600
       204.18200        7.7070100        1.6748700
       207.48500        7.7081700        1.6391700
       210.84000        7.7090900        1.6041200
       214.25100        7.7094100        1.5690300
       217.71600        7.7089900        1.5346800
       221.23700        7.7079700        1.5010900
       224.81600        7.7064900        1.4682500
       228.45200        7.7046300        1.4361300
       232.14700        7.7024200        1.4047100
       235.90200        7.7000000        1.3739700
       239.71700        7.6974700        1.3436300
       243.59500        7.6944200        1.3136100
       247.53500        7.6908500        1.2840600
       251.53800        7.6867900        1.2551300
       255.60700        7.6822900        1.2268300
       259.74100        7.6774400        1.1992300
       263.94200        7.6723200        1.1722300
       268.21100        7.6670100        1.1458300
       272.54900        7.6614200        1.1197700
       276.95700        7.6554400        1.0942300
       281.43700        7.6491400        1.0692400
       285.98900        7.6425800        1.0448300
       290.61500        7.6358400        1.0209700
       295.31500        7.6291300       0.99765200
       300.09200        7.6228900       0.97442600
       304.94500        7.6156500       0.95023000
       309.87800        7.6074500       0.92663500
       314.89000        7.5985200       0.90362400
       319.98300        7.5890400       0.88118500
       325.15800        7.5790400       0.85930400
       330.41800        7.5685800       0.83796600
       335.76200        7.5576600       0.81715800
       341.19200        7.5463100       0.79686600
       346.71100        7.5345400       0.77708000
       352.31900        7.5223600       0.75778300
       358.01700        7.5097700       0.73896600
       363.80800        7.4968000       0.72061600
       369.69200        7.4834600       0.70272100
       375.67200        7.4698100       0.68527200
       381.74800        7.4559700       0.66825500
       387.92200        7.4425000       0.65166100
       394.19700        7.4288500       0.63320300
       400.57300        7.4132900       0.61431900
       407.05200        7.3959600       0.59599700
       413.63500        7.3774400       0.57822200
       420.32600        7.3577800       0.56097700
       427.12400        7.3370100       0.54424600
       434.03200        7.3151000       0.52801400
       441.05200        7.2920200       0.51226700
       448.18600        7.2676900       0.49698900
       455.43500        7.2418900       0.48220200
       462.80200        7.2149000       0.46829600
       470.28700        7.1866500       0.45479100
       477.89400        7.1569700       0.44167600
       485.62300        7.1256600       0.42893800
       493.47800        7.0925700       0.41656700
       501.45900        7.0574800       0.40455400
       509.57000        7.0201800       0.39288800
       517.81200        6.9803900       0.38155700
       526.18700        6.9378300       0.37055300
       534.69800        6.8921100       0.35986700
       543.34600        6.8428300       0.34948900
       552.13400        6.7895300       0.33941000
       561.06500        6.7314100       0.32926900
       570.13900        6.6674700       0.31934000
       579.36100        6.5967200       0.30971000
       588.73200        6.5178900       0.30037100
       598.25400        6.4292700       0.29131300
       607.93000        6.3285100       0.28252900
       617.76300        6.2129100       0.27400900
       627.75500        6.0769000       0.26441900
       637.90800        5.9124800       0.25483600
       648.22600        5.7082400       0.24559900
       658.71100        5.4433800       0.23669800
       669.36500        5.0749300       0.22811900
       680.19100        4.4904300       0.21985100
       691.19300        3.1566600       0.21188200
       696.60000       -1.9477200       0.20811700
       696.80000       -1.9431800        4.2589500
       702.37200        3.3234900        4.2127100
       713.73300        4.8203700        4.1210900
       725.27700        5.5453400        4.0314500
       737.00800        6.0341200        3.9437700
       748.92800        6.4046200        3.8580000
       761.04200        6.7030900        3.7740900
       773.35100        6.9527200        3.6920100
       785.85900        7.1668300        3.6117000
       798.57000        7.3538500        3.5331500
       811.48600        7.5194700        3.4563100
       824.61100        7.6677400        3.3811400
       837.94900        7.8016600        3.3076000
       851.50200        7.9235500        3.2356700
       865.27400        8.0352800        3.1652900
       879.26900        8.1384400        3.0964500
       893.49100        8.2347700        3.0291000
       907.94300        8.3263800        2.9606700
       922.62800        8.4097200        2.8903000
       937.55100        8.4848500        2.8215900
       952.71500        8.5540900        2.7545300
       968.12400        8.6181300        2.6890500
       983.78300        8.6778300        2.6252500
       999.69500        8.7339900        2.5621600
       1015.8600        8.7858600        2.4996100
       1032.2900        8.8334200        2.4382900
       1048.9900        8.8774100        2.3784500
       1065.9600        8.9181700        2.3200600
       1083.2000        8.9560700        2.2631500
       1100.7200        8.9914300        2.2075400
       1118.5200        9.0243300        2.1531500
       1136.6100        9.0549300        2.1000700
       1155.0000        9.0834800        2.0482800
       1173.6800        9.1102500        1.9977600
       1192.6600        9.1354100        1.9483300
       1211.9500        9.1592400        1.8996400
       1231.5500        9.1811500        1.8515000
       1251.4700        9.2011500        1.8046200
       1271.7200        9.2197100        1.7589200
       1292.2900        9.2374500        1.7143600
       1313.1900        9.2538300        1.6699500
       1334.4300        9.2685700        1.6265200
       1356.0100        9.2819600        1.5840700
       1377.9400        9.2941600        1.5427200
       1400.2300        9.3053700        1.5023200
       1422.8800        9.3155300        1.4627900
       1445.8900        9.3247100        1.4242300
       1469.2800        9.3330700        1.3866800
       1493.0400        9.3410100        1.3501400
       1517.1900        9.3481200        1.3136100
       1541.7300        9.3541500        1.2778900
       1566.6700        9.3591900        1.2430600
       1592.0100        9.3634300        1.2091400
       1617.7600        9.3669100        1.1761500
       1643.9200        9.3698100        1.1441200
       1670.5100        9.3722000        1.1129300
       1697.5300        9.3740800        1.0825700
       1724.9900        9.3756700        1.0530200
       1752.8900        9.3768100        1.0239600
       1781.2400        9.3773800       0.99558600
       1810.0500        9.3774500       0.96792700
       1839.3200        9.3770700       0.94104800
       1869.0700        9.3763200       0.91490600
       1899.3000        9.3752300       0.88946600
       1930.0200        9.3738200       0.86474000
       1961.2400        9.3721300       0.84070300
       1992.9600        9.3700900       0.81733500
       2025.2000        9.3681700       0.79491600
       2057.9500        9.3661200       0.77263200
       2091.2400        9.3637100       0.75092800
       2125.0600        9.3610700       0.72978900
       2159.4300        9.3582300       0.70921200
       2194.3600        9.3552300       0.68918100
       2229.8500        9.3520500       0.66967700
       2265.9200        9.3487400       0.65069900
       2302.5700        9.3453000       0.63221800
       2339.8100        9.3417400       0.61423700
       2377.6600        9.3380700       0.59672900
       2416.1100        9.3343000       0.57969600
       2455.1900        9.3304500       0.56312000
       2494.9000        9.3265200       0.54697900
       2535.2600        9.3225200       0.53128000
       2576.2600        9.3184600       0.51600400
       2617.9300        9.3143500       0.50114200
       2660.2700        9.3101900       0.48667200
       2703.3000        9.3059900       0.47260000
       2747.0300        9.3017700       0.45890700
       2791.4600        9.2975100       0.44558500
       2836.6100        9.2932400       0.43261700
       2882.4900        9.2889400       0.42000900
       2929.1100        9.2846400       0.40774400
       2976.4800        9.2803300       0.39580800
       3024.6300        9.2760200       0.38419000
       3073.5500        9.2717100       0.37290500
       3123.2600        9.2674100       0.36191600
       3173.7800        9.2631100       0.35122000
       3225.1100        9.2588200       0.34082600
       3277.2700        9.2545500       0.33071600
       3330.2800        9.2503000       0.32086900
       3384.1500        9.2460600       0.31130800
       3438.8800        9.2418500       0.30200300
       3494.5000        9.2376700       0.29294800
       3551.0200        9.2335100       0.28413600
       3608.4600        9.2293700       0.27556900
       3666.8200        9.2252600       0.26724200
       3726.1300        9.2211900       0.25914300
       3786.4000        9.2171500       0.25125000
       3847.6400        9.2131300       0.24358700
       3909.8700        9.2091500       0.23612500
       3973.1100        9.2051900       0.22887200
       4037.3800        9.2012700       0.22182800
       4102.6800        9.1973800       0.21498000
       4169.0300        9.1935200       0.20832900
       4236.4600        9.1896900       0.20187100
       4304.9800        9.1859000       0.19562000
       4374.6200        9.1821700       0.18953100
       4445.3700        9.1784600       0.18363000
       4517.2700        9.1748100       0.17790100
       4590.3300        9.1712000       0.17234400
       4664.5800        9.1676400       0.16695000
       4740.0300        9.1641200       0.16171700
       4816.6900        9.1606500       0.15663900
