;  Atomic scattering factors for Fr.
;   
;  Concatenation of data from CXRO <http://www-cxro.lbl.gov>
;  and LLNL <http://www-phys.llnl.gov/V_Div/scattering/asf.html>
;  
;  E (eV) f1 f2
;---------------
       10.000000       -9999.0000      0.050442100
       10.161700       -9999.0000      0.060587700
       10.326100       -9999.0000      0.072773800
       10.493100       -9999.0000      0.089384700
       10.662800       -9999.0000       0.11712300
       10.835300       -9999.0000       0.15346800
       11.010600       -9999.0000       0.20109100
       11.188600       -9999.0000       0.26349300
       11.369600       -9999.0000       0.40321500
       11.553500       -9999.0000       0.63759300
       11.740400       -9999.0000        1.0082000
       11.930300       -9999.0000        1.5942500
       12.123200       -9999.0000        2.4940200
       12.319300       -9999.0000        3.3679700
       12.518600       -9999.0000        4.5481700
       12.721000       -9999.0000        6.1419300
       12.926800       -9999.0000        6.9204800
       13.135900       -9999.0000        7.2465400
       13.348300       -9999.0000        7.5879600
       13.564200       -9999.0000        7.8827100
       13.783600       -9999.0000        8.1732900
       14.006600       -9999.0000        8.4745800
       14.233100       -9999.0000        8.7645800
       14.463300       -9999.0000        8.9293500
       14.697300       -9999.0000        9.0972200
       14.935000       -9999.0000        9.2682400
       15.176500       -9999.0000        9.4424900
       15.422000       -9999.0000        9.6200100
       15.671400       -9999.0000        9.7418900
       15.924900       -9999.0000        9.8326800
       16.182500       -9999.0000        9.9243100
       16.444200       -9999.0000        10.016800
       16.710200       -9999.0000        10.110100
       16.980500       -9999.0000        10.204300
       17.255100       -9999.0000        10.301200
       17.534200       -9999.0000        10.430300
       17.817800       -9999.0000        10.561000
       18.106000       -9999.0000        10.693300
       18.398900       -9999.0000        10.827200
       18.696400       -9999.0000        10.926800
       18.998800       -9999.0000        10.994100
       19.306100       -9999.0000        11.062000
       19.618400       -9999.0000        11.130200
       19.935700       -9999.0000        11.198800
       20.258200       -9999.0000        11.245800
       20.585800       -9999.0000        11.266600
       20.918800       -9999.0000        11.287500
       21.257100       -9999.0000        11.308500
       21.600900       -9999.0000        11.329400
       21.950300       -9999.0000        11.350400
       22.305300       -9999.0000        11.270900
       22.666100       -9999.0000        11.141000
       23.032700       -9999.0000        11.012700
       23.405300       -9999.0000        10.885800
       23.783800       -9999.0000        10.760300
       24.168500       -9999.0000        10.636300
       24.559400       -9999.0000        10.390700
       24.956600       -9999.0000        10.136400
       25.360300       -9999.0000        9.8883900
       25.770500       -9999.0000        9.6464200
       26.187300       -9999.0000        9.4103700
       26.610900       -9999.0000        9.1801000
       27.041300       -9999.0000        8.9554500
       27.478600       -9999.0000        8.7363100
       27.923100       -9999.0000        8.3696100
       28.374700       -9999.0000        8.0178600
       28.833700       -9999.0000        7.6808900
       29.300000        8.2015100        7.3580800
       29.773900        8.2344100        7.0488400
       30.255500        8.2472400        6.7525900
       30.744900        8.2432600        6.4688000
       31.242100        8.2252100        6.1969300
       31.747500        8.1956900        5.9364900
       32.260900        8.1575300        5.6869900
       32.782700        8.1185200        5.4479800
       33.313000        8.0937900        5.2157400
       33.851800        8.0451300        4.9241100
       34.399300        7.9525400        4.6487700
       34.955700        7.8351000        4.3888400
       35.521100        7.6990700        4.1434400
       36.095600        7.5476600        3.9117600
       36.679400        7.3828900        3.6930300
       37.272700        7.2061600        3.4865400
       37.875500        7.0184900        3.2915900
       38.488200        6.8206700        3.1075400
       39.110700        6.6135100        2.9337800
       39.743200        6.3986100        2.7691800
       40.386100        6.1724400        2.6080100
       41.039300        5.9333600        2.4562200
       41.703100        5.6825100        2.3132700
       42.377600        5.4201400        2.1786300
       43.063000        5.1459100        2.0518400
       43.759500        4.8591700        1.9324200
       44.467300        4.5589900        1.8199500
       45.186500        4.2439900        1.7140300
       45.917400        3.9117900        1.6142700
       46.660000        3.5569700        1.5242000
       47.414700        3.1897500        1.4507400
       48.181600        2.8058400        1.3808300
       48.960900        2.3943600        1.3209800
       49.752800        1.9687800        1.2759600
       50.557600        1.5178300        1.2353700
       51.375300        1.0462400        1.2112500
       52.206200       0.54851100        1.1875900
       53.050600     0.0067094600        1.1750900
       53.908700      -0.56141400        1.1794900
       54.780600       -1.1737200        1.1861900
       55.666700       -1.8345900        1.2074400
       56.567000       -2.5619600        1.2290600
       57.482000       -3.3780300        1.2816100
       58.411700       -4.2801900        1.3518000
       59.356400       -5.3499600        1.4464800
       60.316500       -6.5816900        1.6750700
       61.292100       -7.9518000        2.2092700
       62.283400       -9.3035300        2.8288500
       63.290800       -10.747500        3.6222000
       64.314500       -12.290900        4.6380700
       65.354700       -13.929400        5.9388000
       66.411800       -15.640100        7.6043300
       67.485900       -17.439200        9.7370100
       68.577500       -19.393500        13.020900
       69.686700       -18.922000        16.954000
       70.813800       -18.411300        20.156700
       71.959100       -17.480200        23.140200
       73.123000       -15.695100        26.054300
       74.305700       -14.015900        27.757300
       75.507600       -12.471900        29.571600
       76.728900       -10.484100        31.263200
       77.969900       -8.7404300        32.303000
       79.231000       -7.2140600        33.377500
       80.512500       -5.6514200        34.487600
       81.814700       -3.9384800        35.411600
       83.138000       -2.3509900        36.208800
       84.482700      -0.78569100        37.023900
       85.849100       0.91663200        37.857400
       87.237700        2.6393600        38.368800
       88.648700        4.2956400        38.884500
       90.082500        5.9676700        39.407100
       91.539500        7.7777000        39.855200
       93.020100        9.5540400        40.186600
       94.524600        11.393900        40.520700
       96.053500        13.466800        40.857500
       97.607100        15.773400        40.707900
       99.185800        17.798400        40.294700
       100.79000        19.766500        39.885600
       102.42000        21.948700        39.480700
       104.07700        24.405500        38.322700
       105.76000        26.137500        36.691700
       107.47100        27.466000        35.130000
       109.20900        28.543400        33.634900
       110.97500        29.433500        32.203400
       112.77000        30.173900        30.832800
       114.59400        30.789000        29.520500
       116.44800        31.295800        28.264100
       118.33100        31.703600        27.061200
       120.24500        32.001500        25.909500
       122.19000        32.205200        24.892400
       124.16600        32.428200        23.967900
       126.17500        32.643700        23.077800
       128.21500        32.842800        22.220700
       130.28900        33.026200        21.395400
       132.39700        33.198400        20.600800
       134.53800        33.367600        19.835700
       136.71400        33.552000        19.099100
       138.92500        33.820600        18.389700
       141.17200        34.058300        17.425300
       143.45600        34.139200        16.474400
       145.77600        34.112900        15.575300
       148.13400        34.029500        14.725400
       150.53000        33.903400        13.921700
       152.96400        33.745000        13.162000
       155.43900        33.565200        12.443700
       157.95300        33.386800        11.747400
       160.50700        33.157700        11.051800
       163.10300        32.891700        10.397400
       165.74200        32.600600        9.7817900
       168.42200        32.290200        9.2025800
       171.14600        31.964700        8.6576800
       173.91500        31.627200        8.1450400
       176.72700        31.283400        7.6627600
       179.58600        30.932300        7.1966000
       182.49100        30.561300        6.7517400
       185.44200        30.176100        6.3344000
       188.44200        29.779700        5.9428300
       191.48900        29.373900        5.5754800
       194.58700        28.970800        5.2230300
       197.73400        28.536400        4.8713200
       200.93200        28.064500        4.5432700
       204.18200        27.533400        4.2373300
       207.48500        26.966400        4.0825600
       210.84000        26.479500        3.9912900
       214.25100        26.072700        3.8884800
       217.71600        25.660000        3.7585000
       221.23700        25.235400        3.6328700
       224.81600        24.802400        3.5093000
       228.45200        24.349100        3.3883300
       232.14700        23.861700        3.2858400
       235.90200        23.342000        3.2083200
       239.71700        22.810900        3.2131600
       243.59500        22.318500        3.2473100
       247.53500        21.837100        3.2818300
       251.53800        21.343300        3.3122200
       255.60700        20.791300        3.3424400
       259.74100        20.251600        3.5224700
       263.94200        19.753100        3.6760000
       268.21100        19.261000        3.8362200
       272.54900        18.751100        4.0046600
       276.95700        18.239200        4.2167500
       281.43700        17.728000        4.4400900
       285.98900        17.204200        4.6752500
       290.61500        16.656900        4.9374900
       295.31500        16.098100        5.2300300
       300.09200        15.510500        5.5399100
       304.94500        14.785000        5.9342500
       309.87800        14.131300        6.5121600
       314.89000        13.595800        7.1463800
       319.98300        13.085200        7.7468600
       325.15800        12.559200        8.3910600
       330.41800        12.013500        9.1004700
       335.76200        11.507400        9.9302600
       341.19200        11.062700        10.835700
       346.71100        10.732500        11.802900
       352.31900        10.446600        12.783400
       358.01700        10.239800        13.845300
       363.80800        10.171300        14.904300
       369.69200        10.118300        15.932400
       375.67200        10.123000        17.031400
       381.74800        10.314400        18.206200
       387.92200        10.691000        19.210900
       394.19700        10.988200        20.072000
       400.57300        11.268200        20.971700
       407.05200        11.603200        21.911800
       413.63500        12.119300        22.815200
       420.32600        12.561900        23.526500
       427.12400        12.954000        24.259900
       434.03200        13.342400        25.016100
       441.05200        13.749100        25.796000
       448.18600        14.193600        26.600100
       455.43500        14.729100        27.404000
       462.80200        15.264000        28.141900
       470.28700        15.814200        28.899600
       477.89400        16.412800        29.677800
       485.62300        17.110700        30.476900
       493.47800        17.983900        31.124500
       501.45900        18.768400        31.594800
       509.57000        19.451600        32.072200
       517.81200        20.117900        32.556800
       526.18700        20.779500        33.048700
       534.69800        21.446700        33.548100
       543.34600        22.151400        34.055000
       552.13400        22.874900        34.506900
       561.06500        23.561800        34.929000
       570.13900        24.222000        35.356200
       579.36100        24.799300        35.788600
       588.73200        25.295400        36.399700
       598.25400        25.997500        37.238300
       607.93000        26.908600        38.096200
       617.76300        28.048100        38.973900
       627.75500        29.702300        39.789400
       637.90800        31.248500        39.828600
       648.22600        32.611200        39.867800
       658.71100        34.132200        39.801100
       669.36500        35.429800        39.379400
       680.19100        36.452700        38.962200
       691.19300        37.323500        38.549500
       702.37200        38.130700        38.256300
       713.73300        38.918500        37.970900
       725.27700        39.690800        37.687600
       737.00800        40.463900        37.406500
       748.92800        41.213300        37.040500
       761.04200        41.883100        36.643600
       773.35100        42.466400        36.250900
       785.85900        42.983700        35.880400
       798.57000        43.459200        35.536000
       811.48600        43.887400        35.199500
       824.61100        44.247300        34.866300
       837.94900        44.464900        34.536200
       851.50200        44.561800        34.428100
       865.27400        44.639800        34.565600
       879.26900        44.966300        34.926100
       893.49100        45.493200        35.290000
       907.94300        46.197700        35.657900
       922.62800        47.225900        36.029600
       937.55100        48.315600        35.873900
       952.71500        49.319900        35.584800
       968.12400        50.144900        35.181900
       983.78300        50.867400        34.783700
       999.69500        51.530800        34.384900
       1015.8600        52.157600        33.985300
       1032.2900        52.704300        33.544100
       1048.9900        53.179800        33.156400
       1065.9600        53.657800        32.825300
       1083.2000        54.137900        32.496700
       1100.7200        54.611000        32.171100
       1118.5200        55.076300        31.848600
       1136.6100        55.534300        31.528500
       1155.0000        55.986300        31.211200
       1173.6800        56.434500        30.896800
       1192.6600        56.881700        30.584900
       1211.9500        57.333500        30.275900
       1231.5500        57.806600        29.969500
       1251.4700        58.299000        29.618300
       1271.7200        58.793900        29.220100
       1292.2900        59.228300        28.764900
       1313.1900        59.614000        28.315600
       1334.4300        59.968600        27.872900
       1356.0100        60.298800        27.436600
       1377.9400        60.608400        27.006500
       1400.2300        60.900400        26.582600
       1422.8800        61.176700        26.164600
       1445.8900        61.440200        25.753000
       1469.2800        61.695100        25.343900
       1493.0400        61.942300        24.935600
       1517.1900        62.170600        24.513600
       1541.7300        62.376900        24.095600
       1566.6700        62.564200        23.684300
       1592.0100        62.736000        23.279000
       1617.7600        62.893300        22.880100
       1643.9200        63.037300        22.487300
       1670.5100        63.168700        22.100800
       1697.5300        63.288600        21.720600
       1724.9900        63.403500        21.346000
       1752.8900        63.505900        20.965400
       1781.2400        63.591000        20.587100
       1810.0500        63.659300        20.212000
       1839.3200        63.710800        19.843000
       1869.0700        63.747600        19.480500
       1899.3000        63.770500        19.124200
       1930.0200        63.779200        18.773600
       1961.2400        63.773500        18.429300
       1992.9600        63.751100        18.090900
       2025.2000        63.724900        17.766400
       2057.9500        63.685700        17.431400
       2091.2400        63.624700        17.100300
       2125.0600        63.544800        16.772800
       2159.4300        63.445100        16.450000
       2194.3600        63.324800        16.131000
       2229.8500        63.182400        15.816800
       2265.9200        63.016400        15.506800
       2302.5700        62.824700        15.201300
       2339.8100        62.605300        14.900200
       2377.6600        62.354600        14.602400
       2416.1100        62.068200        14.308600
       2455.1900        61.741600        14.019800
       2494.9000        61.370200        13.735700
       2535.2600        60.946000        13.455000
       2576.2600        60.459100        13.178500
       2617.9300        59.896500        12.906200
       2660.2700        59.241200        12.638100
       2703.3000        58.468200        12.373900
       2747.0300        57.540600        12.113900
       2791.4600        56.400400        11.858100
       2836.6100        54.947400        11.606200
       2882.4900        52.982900        11.358100
       2929.1100        50.008000        11.114100
       2976.4800        43.757100        10.873900
       2999.8000        14.758800        10.759000
       3000.0000        14.759800        27.341100
       3024.6300        43.501600        26.998800
       3073.5500        47.706800        26.339400
       3123.2600        45.221000        25.696500
       3136.1000        28.398500        25.534600
       3136.3000        28.410100        36.834400
       3173.7800        51.346000        36.175800
       3225.1100        56.063600        35.304900
       3277.2700        58.959900        34.457600
       3330.2800        61.070200        33.630800
       3384.1500        62.695500        32.825900
       3438.8800        63.960200        32.040300
       3494.5000        64.910400        31.276000
       3551.0200        65.514700        30.529300
       3608.4600        65.535900        29.802800
       3662.9000        57.163800        29.140300
       3663.1000        57.167900        33.787300
       3666.8200        62.625700        33.735800
       3726.1300        67.677900        32.932400
       3786.4000        69.439700        32.150600
       3847.6400        70.709300        31.387800
       3909.8700        71.727900        30.644000
       3973.1100        72.577000        29.918900
       4037.3800        73.293200        29.212100
       4102.6800        73.891300        28.522700
       4169.0300        74.366000        27.849000
       4236.4600        74.675600        27.193900
       4304.9800        74.515700        26.553600
       4326.9000        72.067000        26.354200
       4327.1000        72.068500        27.870200
       4374.6200        75.360300        27.431000
