;  Atomic scattering factors for Ga.
;   
;  Concatenation of data from CXRO <http://www-cxro.lbl.gov>
;  and LLNL <http://www-phys.llnl.gov/V_Div/scattering/asf.html>
;  
;  E (eV) f1 f2
;---------------
       10.000000       -9999.0000        2.9852700
       10.161700       -9999.0000        2.9814100
       10.326100       -9999.0000        2.9775600
       10.493100       -9999.0000        2.9737000
       10.662800       -9999.0000        2.9698600
       10.835300       -9999.0000        2.9660200
       11.010600       -9999.0000        2.9569500
       11.188600       -9999.0000        2.9085900
       11.369600       -9999.0000        2.8610300
       11.553500       -9999.0000        2.8142500
       11.740400       -9999.0000        2.7682300
       11.930300       -9999.0000        2.6663600
       12.123200       -9999.0000        2.5539400
       12.319300       -9999.0000        2.4462600
       12.518600       -9999.0000        2.3431100
       12.721000       -9999.0000        2.2443200
       12.926800       -9999.0000        2.1496900
       13.135900       -9999.0000        2.0216300
       13.348300       -9999.0000        1.8945800
       13.564200       -9999.0000        1.7075200
       13.783600       -9999.0000        1.4471300
       14.006600       -9999.0000        1.2411000
       14.233100       -9999.0000        1.0710700
       14.463300       -9999.0000       0.92074700
       14.697300       -9999.0000       0.77340100
       14.935000       -9999.0000       0.65087600
       15.176500       -9999.0000       0.59935200
       15.422000       -9999.0000       0.55190900
       15.671400       -9999.0000       0.50822000
       15.924900       -9999.0000       0.47277800
       16.182500       -9999.0000       0.43996600
       16.444200       -9999.0000       0.43395000
       16.710200       -9999.0000       0.43223600
       16.980500       -9999.0000       0.43055200
       17.255100       -9999.0000       0.44278300
       17.534200       -9999.0000       0.45536200
       17.817800       -9999.0000       0.46829800
       18.106000       -9999.0000       0.48863100
       18.398900       -9999.0000       0.53554300
       18.696400       -9999.0000       0.58695900
       18.998800       -9999.0000       0.67168400
       19.306100       -9999.0000       0.79209400
       19.618400       -9999.0000       0.91193300
       19.935700       -9999.0000        1.0031900
       20.258200       -9999.0000        1.1035900
       20.585800       -9999.0000        1.1880200
       20.918800       -9999.0000        1.2519500
       21.257100       -9999.0000        1.3193200
       21.600900       -9999.0000        1.3490700
       21.950300       -9999.0000        1.3591700
       22.305300       -9999.0000        1.3693400
       22.666100       -9999.0000        1.3795900
       23.032700       -9999.0000        1.3899200
       23.405300       -9999.0000        1.3894200
       23.783800       -9999.0000        1.3800200
       24.168500       -9999.0000        1.3706900
       24.559400       -9999.0000        1.3614300
       24.956600       -9999.0000        1.3663500
       25.360300       -9999.0000        1.3960500
       25.770500       -9999.0000        1.4263900
       26.187300       -9999.0000        1.4574000
       26.610900       -9999.0000        1.4890800
       27.041300       -9999.0000        1.5214500
       27.478600       -9999.0000        1.5600100
       27.923100       -9999.0000        1.6132500
       28.374700       -9999.0000        1.6683000
       28.833700       -9999.0000        1.7252400
       29.300000        1.3271000        1.7841100
       29.773900        1.2943400        1.8450000
       30.255500        1.2627600        1.9079600
       30.744900        1.2322300        1.9730700
       31.242100        1.2026300        2.0404100
       31.747500        1.1737000        2.1103900
       32.260900        1.1462600        2.1833000
       32.782700        1.1202800        2.2587300
       33.313000        1.0957900        2.3367700
       33.851800        1.0728900        2.4175000
       34.399300        1.0517700        2.5010200
       34.955700        1.0327000        2.5874200
       35.521100        1.0160000        2.6768200
       36.095600        1.0021800        2.7693000
       36.679400       0.99193400        2.8649700
       37.272700       0.98721900        2.9639500
       37.875500       0.99234200        3.0663500
       38.488200        1.0033100        3.1530500
       39.110700        1.0072900        3.2385800
       39.743200        1.0092800        3.3264400
       40.386100        1.0109800        3.4166700
       41.039300        1.0131700        3.5093600
       41.703100        1.0164000        3.6045600
       42.377600        1.0211700        3.7023400
       43.063000        1.0279600        3.8027700
       43.759500        1.0374000        3.9059300
       44.467300        1.0503200        4.0118900
       45.186500        1.0694500        4.1207200
       45.917400        1.1014500        4.2265000
       46.660000        1.1284200        4.3194100
       47.414700        1.1505800        4.4143500
       48.181600        1.1716900        4.5113800
       48.960900        1.1927100        4.6105400
       49.752800        1.2142200        4.7118900
       50.557600        1.2366300        4.8154500
       51.375300        1.2603500        4.9213000
       52.206200        1.2857400        5.0294700
       53.050600        1.3134800        5.1400300
       53.908700        1.3449300        5.2530100
       54.780600        1.3789900        5.3636800
       55.666700        1.4128700        5.4758100
       56.567000        1.4480300        5.5902800
       57.482000        1.4851500        5.7071500
       58.411700        1.5247700        5.8264600
       59.356400        1.5674000        5.9482600
       60.316500        1.6137300        6.0726100
       61.292100        1.6646600        6.1995700
       62.283400        1.7223900        6.3291700
       63.290800        1.7929900        6.4614800
       64.314500        1.8712500        6.5730800
       65.354700        1.9401000        6.6804400
       66.411800        2.0059800        6.7895600
       67.485900        2.0713300        6.9004500
       68.577500        2.1373900        7.0131600
       69.686700        2.2050600        7.1277000
       70.813800        2.2754400        7.2441200
       71.959100        2.3503900        7.3624300
       73.123000        2.4360700        7.4808800
       74.305700        2.5202300        7.5799400
       75.507600        2.5975800        7.6803000
       76.728900        2.6711900        7.7820000
       77.969900        2.7429900        7.8850400
       79.231000        2.8132600        7.9894500
       80.512500        2.8819900        8.0952400
       81.814700        2.9485300        8.2024300
       83.138000        3.0098600        8.3110400
       84.482700        3.0667700        8.4342000
       85.849100        3.1320300        8.5643300
       87.237700        3.2029300        8.6964600
       88.648700        3.2770000        8.8306300
       90.082500        3.3536700        8.9668800
       91.539500        3.4323700        9.1052200
       93.020100        3.5116900        9.2457100
       94.524600        3.5901200        9.3914500
       96.053500        3.6677700        9.5494800
       97.607100        3.7580400        9.7171900
       99.185800        3.8586900        9.8878500
       100.79000        3.9675800        10.061500
       102.42000        4.0848800        10.238200
       104.07700        4.2112000        10.418000
       105.76000        4.3474500        10.601000
       107.47100        4.4952000        10.787100
       109.20900        4.6567500        10.976600
       110.97500        4.8380200        11.169400
       112.77000        5.0636200        11.365500
       114.59400        5.2953200        11.485500
       116.44800        5.5009000        11.600600
       118.33100        5.6976200        11.716800
       120.24500        5.8915000        11.834200
       122.19000        6.0853200        11.952700
       124.16600        6.2808800        12.072500
       126.17500        6.4796700        12.193400
       128.21500        6.6830600        12.315600
       130.28900        6.8926000        12.439000
       132.39700        7.1101900        12.563600
       134.53800        7.3386400        12.689400
       136.71400        7.5830100        12.816600
       138.92500        7.8603500        12.945000
       141.17200        8.1731900        13.006400
       143.45600        8.4471100        13.031800
       145.77600        8.6936600        13.057300
       148.13400        8.9303800        13.082800
       150.53000        9.1602800        13.108400
       152.96400        9.3853900        13.134000
       155.43900        9.6070800        13.159700
       157.95300        9.8264500        13.185400
       160.50700        10.044400        13.211200
       163.10300        10.261600        13.237000
       165.74200        10.479000        13.262900
       168.42200        10.697400        13.288800
       171.14600        10.917900        13.314800
       173.91500        11.142000        13.340800
       176.72700        11.373200        13.366900
       179.58600        11.624900        13.387200
       182.49100        11.866000        13.369600
       185.44200        12.093400        13.352000
       188.44200        12.312600        13.334500
       191.48900        12.527100        13.317000
       194.58700        12.738300        13.299500
       197.73400        12.947000        13.282100
       200.93200        13.153700        13.264600
       204.18200        13.359200        13.247200
       207.48500        13.563700        13.229800
       210.84000        13.767700        13.212400
       214.25100        13.971600        13.195100
       217.71600        14.175800        13.177700
       221.23700        14.380800        13.160400
       224.81600        14.587100        13.143100
       228.45200        14.795200        13.125900
       232.14700        15.005900        13.108700
       235.90200        15.220200        13.091400
       239.71700        15.439800        13.074200
       243.59500        15.667500        13.057100
       247.53500        15.912000        13.039900
       251.53800        16.184000        12.986000
       255.60700        16.429500        12.900000
       259.74100        16.651900        12.814700
       263.94200        16.865800        12.729900
       268.21100        17.073700        12.645700
       272.54900        17.277100        12.562000
       276.95700        17.477500        12.478900
       281.43700        17.675700        12.396300
       285.98900        17.873000        12.314300
       290.61500        18.070600        12.232800
       295.31500        18.269900        12.151800
       300.09200        18.473200        12.071400
       304.94500        18.685100        11.991600
       309.87800        18.922600        11.912200
       314.89000        19.168400        11.768500
       319.98300        19.380700        11.605800
       325.15800        19.565400        11.445300
       330.41800        19.736800        11.287000
       335.76200        19.897700        11.131000
       341.19200        20.050000        10.977000
       346.71100        20.194900        10.825300
       352.31900        20.333500        10.675600
       358.01700        20.466600        10.528000
       363.80800        20.595000        10.382400
       369.69200        20.719300        10.238800
       375.67200        20.840400        10.097200
       381.74800        20.959300        9.9576100
       387.92200        21.077100        9.8199200
       394.19700        21.206900        9.6832200
       400.57300        21.326900        9.5202400
       407.05200        21.430400        9.3599900
       413.63500        21.524800        9.2024600
       420.32600        21.612300        9.0475600
       427.12400        21.693700        8.8952800
       434.03200        21.769900        8.7455600
       441.05200        21.841300        8.5983500
       448.18600        21.908400        8.4536300
       455.43500        21.971400        8.3113400
       462.80200        22.030700        8.1714500
       470.28700        22.086700        8.0339100
       477.89400        22.139500        7.8986900
       485.62300        22.189500        7.7657400
       493.47800        22.237000        7.6350300
       501.45900        22.282400        7.5065300
       509.57000        22.326400        7.3801800
       517.81200        22.369600        7.2559700
       526.18700        22.421600        7.1338400
       534.69800        22.467600        6.9925200
       543.34600        22.500500        6.8526500
       552.13400        22.526000        6.7155900
       561.06500        22.545600        6.5812700
       570.13900        22.560400        6.4496300
       579.36100        22.570800        6.3206200
       588.73200        22.577100        6.1942000
       598.25400        22.579800        6.0703100
       607.93000        22.579200        5.9488900
       617.76300        22.575500        5.8299000
       627.75500        22.569300        5.7133000
       637.90800        22.561100        5.5990200
       648.22600        22.551800        5.4870300
       658.71100        22.543800        5.3772800
       669.36500        22.545900        5.2697200
       680.19100        22.549600        5.1302500
       691.19300        22.530400        4.9790100
       702.37200        22.489000        4.8322300
       713.73300        22.434900        4.6897800
       725.27700        22.369700        4.5515200
       737.00800        22.293900        4.4173400
       748.92800        22.207900        4.2871100
       761.04200        22.111700        4.1607300
       773.35100        22.004700        4.0380700
       785.85900        21.886100        3.9190300
       798.57000        21.754100        3.8035000
       811.48600        21.600900        3.6913700
       824.61100        21.438100        3.6078300
       837.94900        21.274600        3.5309700
       851.50200        21.107300        3.4553100
       865.27400        20.930100        3.3805900
       879.26900        20.739400        3.3068800
       893.49100        20.532700        3.2349400
       907.94300        20.307400        3.1645000
       922.62800        20.059500        3.0955300
       937.55100        19.785000        3.0284800
       952.71500        19.478200        2.9629200
       968.12400        19.131700        2.8988200
       983.78300        18.735200        2.8361500
       999.69500        18.274400        2.7753200
       1015.8600        17.727700        2.7163000
       1032.2900        17.065600        2.6626400
       1048.9900        16.232900        2.6096300
       1065.9600        15.123300        2.5572100
       1083.2000        13.492200        2.5058000
       1100.7200        10.512400        2.4554100
       1116.6000       -10.672500        2.4112800
       1116.8000       -10.667800        15.626800
       1118.5200        1.5687100        15.611500
       1136.6100        11.792100        15.453100
       1155.0000        14.665200        15.296200
       1173.6800        16.436800        15.141000
       1192.6600        17.728800        14.987300
       1211.9500        18.744200        14.835200
       1231.5500        19.570000        14.684600
       1251.4700        20.241800        14.536800
       1271.7200        20.741300        14.390600
       1292.2900        20.772300        14.245800
       1298.9000        18.789900        14.200100
       1299.1000        18.801100        15.885200
       1313.1900        21.992700        15.636500
       1334.4300        23.120900        15.273800
       1356.0100        23.923400        14.919400
       1377.9400        24.581100        14.573400
       1400.2300        25.146700        14.235300
       1422.8800        25.644800        13.905100
       1445.8900        26.089700        13.582400
       1469.2800        26.490900        13.267400
       1493.0400        26.855200        12.959900
       1517.1900        27.188100        12.660600
       1541.7300        27.494300        12.368200
       1566.6700        27.776600        12.082600
       1592.0100        28.037600        11.803600
       1617.7600        28.279700        11.531100
       1643.9200        28.504800        11.264900
       1670.5100        28.714800        11.004800
       1697.5300        28.911700        10.750700
       1724.9900        29.099000        10.502500
       1752.8900        29.274600        10.252100
       1781.2400        29.436400        10.005200
       1810.0500        29.584200        9.7622800
       1839.3200        29.720100        9.5251900
       1869.0700        29.845700        9.2938200
       1899.3000        29.961900        9.0680300
       1930.0200        30.069700        8.8478700
       1961.2400        30.170000        8.6330700
       1992.9600        30.262000        8.4234300
       2025.2000        30.350900        8.2226000
       2057.9500        30.435200        8.0194400
       2091.2400        30.511600        7.8202000
       2125.0600        30.581200        7.6256500
       2159.4300        30.645200        7.4353100
       2194.3600        30.703600        7.2488700
       2229.8500        30.757000        7.0668800
       2265.9200        30.805700        6.8888000
       2302.5700        30.849900        6.7149100
       2339.8100        30.890000        6.5448500
       2377.6600        30.926100        6.3786100
       2416.1100        30.958400        6.2164400
       2455.1900        30.987300        6.0578500
       2494.9000        31.013000        5.9031500
       2535.2600        31.035600        5.7519400
       2576.2600        31.055200        5.6042200
       2617.9300        31.072000        5.4601500
       2660.2700        31.086400        5.3195000
       2703.3000        31.098300        5.1820700
       2747.0300        31.107700        5.0479600
       2791.4600        31.115200        4.9173300
       2836.6100        31.120500        4.7893800
       2882.4900        31.123800        4.6650200
       2929.1100        31.125500        4.5435200
       2976.4800        31.125400        4.4250000
       3024.6300        31.123700        4.3094000
       3073.5500        31.120500        4.1966700
       3123.2600        31.116000        4.0867000
       3173.7800        31.110100        3.9794600
       3225.1100        31.102900        3.8749300
       3277.2700        31.094600        3.7729600
       3330.2800        31.085200        3.6735500
       3384.1500        31.074800        3.5766600
       3438.8800        31.063400        3.4821800
       3494.5000        31.051200        3.3900900
       3551.0200        31.038000        3.3003200
       3608.4600        31.024100        3.2128300
       3666.8200        31.009400        3.1275500
       3726.1300        30.994100        3.0445000
       3786.4000        30.978100        2.9634700
       3847.6400        30.961400        2.8845500
       3909.8700        30.944200        2.8076700
       3973.1100        30.926500        2.7327500
       4037.3800        30.908300        2.6597300
       4102.6800        30.889600        2.5885900
       4169.0300        30.870400        2.5192500
       4236.4600        30.850800        2.4517100
       4304.9800        30.830900        2.3859700
       4374.6200        30.810600        2.3218500
       4445.3700        30.789800        2.2594000
       4517.2700        30.768800        2.1986100
       4590.3300        30.747500        2.1393600
       4664.5800        30.725800        2.0816200
