;  Atomic scattering factors for Ge.
;   
;  Concatenation of data from CXRO <http://www-cxro.lbl.gov>
;  and LLNL <http://www-phys.llnl.gov/V_Div/scattering/asf.html>
;  
;  E (eV) f1 f2
;---------------
       10.000000       -9999.0000        3.0118300
       10.161700       -9999.0000        3.0554800
       10.326100       -9999.0000        3.0997600
       10.493100       -9999.0000        3.1446800
       10.662800       -9999.0000        3.1902500
       10.835300       -9999.0000        3.2182500
       11.010600       -9999.0000        3.2075500
       11.188600       -9999.0000        3.1968900
       11.369600       -9999.0000        3.1862600
       11.553500       -9999.0000        3.1756800
       11.740400       -9999.0000        3.1668700
       11.930300       -9999.0000        3.1581600
       12.123200       -9999.0000        3.1494700
       12.319300       -9999.0000        3.1408000
       12.518600       -9999.0000        3.1321600
       12.721000       -9999.0000        3.1142100
       12.926800       -9999.0000        3.0168300
       13.135900       -9999.0000        2.9225000
       13.348300       -9999.0000        2.8311200
       13.564200       -9999.0000        2.7426000
       13.783600       -9999.0000        2.6568500
       14.006600       -9999.0000        2.5737800
       14.233100       -9999.0000        2.4933000
       14.463300       -9999.0000        2.4153400
       14.697300       -9999.0000        2.3398200
       14.935000       -9999.0000        2.2666600
       15.176500       -9999.0000        2.1869800
       15.422000       -9999.0000        2.1069700
       15.671400       -9999.0000        2.0298700
       15.924900       -9999.0000        1.9556000
       16.182500       -9999.0000        1.8840500
       16.444200       -9999.0000        1.8151100
       16.710200       -9999.0000        1.7487000
       16.980500       -9999.0000        1.6847200
       17.255100       -9999.0000        1.6230800
       17.534200       -9999.0000        1.5636900
       17.817800       -9999.0000        1.5064800
       18.106000       -9999.0000        1.4513600
       18.398900       -9999.0000        1.3982500
       18.696400       -9999.0000        1.3440600
       18.998800       -9999.0000        1.2858600
       19.306100       -9999.0000        1.2301800
       19.618400       -9999.0000        1.1769000
       19.935700       -9999.0000        1.1259400
       20.258200       -9999.0000        1.0771800
       20.585800       -9999.0000        1.0305400
       20.918800       -9999.0000       0.98273900
       21.257100       -9999.0000       0.92306200
       21.600900       -9999.0000       0.86700900
       21.950300       -9999.0000       0.81435900
       22.305300       -9999.0000       0.76490600
       22.666100       -9999.0000       0.71845800
       23.032700       -9999.0000       0.67482900
       23.405300       -9999.0000       0.63385000
       23.783800       -9999.0000       0.59159400
       24.168500       -9999.0000       0.54842700
       24.559400       -9999.0000       0.50841000
       24.956600       -9999.0000       0.47396400
       25.360300       -9999.0000       0.46103000
       25.770500       -9999.0000       0.44845000
       26.187300       -9999.0000       0.44458900
       26.610900       -9999.0000       0.45026400
       27.041300       -9999.0000       0.45601100
       27.478600       -9999.0000       0.46183200
       27.923100       -9999.0000       0.48368200
       28.374700       -9999.0000       0.53889500
       28.833700       -9999.0000       0.69867600
       29.300000       0.44012400       0.90582900
       29.773900       0.27223300        1.1744000
       30.255500       0.16295800        1.5226200
       30.744900       0.21716300        1.9740600
       31.242100       0.45376900        2.2214100
       31.747500       0.68204600        2.3841600
       32.260900       0.88226400        2.5049200
       32.782700        1.1372000        2.5162100
       33.313000        1.2815000        2.4521900
       33.851800        1.3705100        2.3908900
       34.399300        1.4286100        2.3381300
       34.955700        1.4645900        2.2865400
       35.521100        1.4789100        2.2370600
       36.095600        1.4782700        2.1966700
       36.679400        1.4648300        2.1570100
       37.272700        1.4315300        2.1180600
       37.875500        1.3647700        2.0963800
       38.488200        1.3095400        2.1072300
       39.110700        1.2606100        2.1181400
       39.743200        1.2072700        2.1291000
       40.386100        1.1421700        2.1432400
       41.039300        1.0760300        2.1735600
       41.703100        1.0092500        2.2043100
       42.377600       0.93039400        2.2354900
       43.063000       0.82707700        2.2934400
       43.759500       0.74599000        2.3746300
       44.467300       0.67483400        2.4586900
       45.186500       0.60486700        2.5457300
       45.917400       0.52900200        2.6358500
       46.660000       0.45262600        2.7574500
       47.414700       0.39843300        2.8917900
       48.181600       0.36736800        3.0326900
       48.960900       0.36893200        3.1511800
       49.752800       0.35178300        3.2509700
       50.557600       0.32649700        3.3539300
       51.375300       0.29999700        3.4601400
       52.206200       0.27387700        3.5689300
       53.050600       0.24649900        3.6797500
       53.908700       0.21820900        3.7940000
       54.780600       0.18872900        3.9118000
       55.666700       0.15559900        4.0332600
       56.567000       0.12414800        4.1697600
       57.482000      0.098601400        4.3109200
       58.411700      0.077227700        4.4568700
       59.356400      0.059723900        4.6077500
       60.316500      0.046109300        4.7637400
       61.292100      0.036166200        4.9259400
       62.283400      0.032630000        5.0947100
       63.290800      0.035931600        5.2692500
       64.314500      0.047017100        5.4497800
       65.354700      0.067463900        5.6364900
       66.411800      0.099814400        5.8296000
       67.485900       0.14837700        6.0293200
       68.577500       0.23425000        6.2433900
       69.686700       0.34810700        6.3832100
       70.813800       0.43082100        6.5099200
       71.959100       0.49706700        6.6391400
       73.123000       0.55826100        6.7709300
       74.305700       0.61658000        6.9053400
       75.507600       0.67349100        7.0424100
       76.728900       0.72997700        7.1822000
       77.969900       0.78684500        7.3247700
       79.231000       0.84472500        7.4701700
       80.512500       0.90433800        7.6184500
       81.814700       0.96654000        7.7696800
       83.138000        1.0336200        7.9239100
       84.482700        1.1033700        8.0734300
       85.849100        1.1722000        8.2249000
       87.237700        1.2415400        8.3792200
       88.648700        1.3126600        8.5364300
       90.082500        1.3860500        8.6965900
       91.539500        1.4621900        8.8597600
       93.020100        1.5415400        9.0259900
       94.524600        1.6246900        9.1953300
       96.053500        1.7123000        9.3678600
       97.607100        1.8060500        9.5436200
       99.185800        1.9122000        9.7182800
       100.79000        2.0165300        9.8854100
       102.42000        2.1198200        10.055400
       104.07700        2.2252900        10.228300
       105.76000        2.3337100        10.404200
       107.47100        2.4457800        10.583100
       109.20900        2.5619500        10.765100
       110.97500        2.6828400        10.950300
       112.77000        2.8089300        11.138600
       114.59400        2.9409200        11.330100
       116.44800        3.0794600        11.525000
       118.33100        3.2255400        11.723200
       120.24500        3.3803600        11.924800
       122.19000        3.5459500        12.129800
       124.16600        3.7262600        12.338400
       126.17500        3.9360500        12.544100
       128.21500        4.1432200        12.710800
       130.28900        4.3429700        12.879800
       132.39700        4.5413400        13.051000
       134.53800        4.7428400        13.224400
       136.71400        4.9491900        13.400200
       138.92500        5.1620300        13.578400
       141.17200        5.3829400        13.758900
       143.45600        5.6139400        13.941700
       145.77600        5.8576300        14.127100
       148.13400        6.1186500        14.314900
       150.53000        6.4087200        14.505200
       152.96400        6.7591400        14.655100
       155.43900        7.0676600        14.740300
       157.95300        7.3536000        14.826000
       160.50700        7.6300300        14.912300
       163.10300        7.9017000        14.999000
       165.74200        8.1713000        15.086200
       168.42200        8.4406500        15.173900
       171.14600        8.7112100        15.262100
       173.91500        8.9843200        15.350900
       176.72700        9.2612100        15.440100
       179.58600        9.5433100        15.529900
       182.49100        9.8322500        15.620200
       185.44200        10.130200        15.711000
       188.44200        10.440200        15.802400
       191.48900        10.767700        15.894300
       194.58700        11.127000        15.986700
       197.73400        11.561200        16.028100
       200.93200        11.934700        15.977300
       204.18200        12.270400        15.926700
       207.48500        12.586600        15.876300
       210.84000        12.890000        15.826000
       214.25100        13.183800        15.775900
       217.71600        13.470400        15.725900
       221.23700        13.751300        15.676200
       224.81600        14.027800        15.626500
       228.45200        14.301000        15.577100
       232.14700        14.571800        15.527700
       235.90200        14.841100        15.478500
       239.71700        15.109900        15.429500
       243.59500        15.379100        15.380700
       247.53500        15.649800        15.332000
       251.53800        15.923600        15.283400
       255.60700        16.202400        15.235000
       259.74100        16.489000        15.186800
       263.94200        16.788700        15.138700
       268.21100        17.128400        15.090800
       272.54900        17.502500        14.966900
       276.95700        17.816800        14.785600
       281.43700        18.094400        14.606400
       285.98900        18.350400        14.429500
       290.61500        18.590500        14.254700
       295.31500        18.817900        14.082000
       300.09200        19.034400        13.911400
       304.94500        19.241700        13.742800
       309.87800        19.440900        13.576400
       314.89000        19.632800        13.411900
       319.98300        19.818200        13.249400
       325.15800        19.997700        13.088900
       330.41800        20.172100        12.930300
       335.76200        20.341700        12.773700
       341.19200        20.507300        12.618900
       346.71100        20.669400        12.466000
       352.31900        20.828700        12.315000
       358.01700        20.986200        12.165800
       363.80800        21.143900        12.018400
       369.69200        21.309900        11.864500
       375.67200        21.464200        11.698600
       381.74800        21.606600        11.535100
       387.92200        21.743400        11.373800
       394.19700        21.875700        11.214800
       400.57300        22.004400        11.058000
       407.05200        22.130500        10.903400
       413.63500        22.255100        10.751000
       420.32600        22.379500        10.600700
       427.12400        22.505500        10.452500
       434.03200        22.648600        10.306400
       441.05200        22.795300        10.125500
       448.18600        22.914600        9.9293800
       455.43500        23.016400        9.7370300
       462.80200        23.106700        9.5484000
       470.28700        23.188100        9.3634300
       477.89400        23.261900        9.1820500
       485.62300        23.329000        9.0041700
       493.47800        23.390200        8.8297300
       501.45900        23.446100        8.6586900
       509.57000        23.497100        8.4909500
       517.81200        23.543600        8.3264700
       526.18700        23.586000        8.1651700
       534.69800        23.624800        8.0070000
       543.34600        23.660400        7.8518800
       552.13400        23.693400        7.6997800
       561.06500        23.724800        7.5506100
       570.13900        23.757700        7.4043400
       579.36100        23.792600        7.2487800
       588.73200        23.816200        7.0875000
       598.25400        23.828400        6.9298000
       607.93000        23.834200        6.7756100
       617.76300        23.834200        6.6248600
       627.75500        23.829000        6.4774600
       637.90800        23.818900        6.3333400
       648.22600        23.804300        6.1924200
       658.71100        23.785400        6.0546400
       669.36500        23.762200        5.9199200
       680.19100        23.735000        5.7882100
       691.19300        23.703800        5.6594200
       702.37200        23.669000        5.5335000
       713.73300        23.630400        5.4103800
       725.27700        23.592200        5.2900000
       737.00800        23.548100        5.1638200
       748.92800        23.495000        5.0401100
       761.04200        23.435100        4.9193600
       773.35100        23.368900        4.8015000
       785.85900        23.296500        4.6864700
       798.57000        23.217700        4.5741900
       811.48600        23.132500        4.4646000
       824.61100        23.040600        4.3576400
       837.94900        22.941700        4.2532400
       851.50200        22.835500        4.1513400
       865.27400        22.721900        4.0518800
       879.26900        22.603800        3.9517500
       893.49100        22.471700        3.8472400
       907.94300        22.323100        3.7454900
       922.62800        22.159400        3.6464300
       937.55100        21.977700        3.5499900
       952.71500        21.772500        3.4604000
       968.12400        21.555600        3.3861000
       983.78300        21.324200        3.3134300
       999.69500        21.072000        3.2425800
       1015.8600        20.793700        3.1735200
       1032.2900        20.485300        3.1081300
       1048.9900        20.139700        3.0435700
       1065.9600        19.746200        2.9797900
       1083.2000        19.291500        2.9173500
       1100.7200        18.756200        2.8562300
       1118.5200        18.110900        2.7964200
       1136.6100        17.307100        2.7377600
       1155.0000        16.256100        2.6803400
       1173.6800        14.769400        2.6241300
       1192.6600        12.311300        2.5691000
       1211.9500        5.3614700        2.5152200
       1216.9000       -12.394900        2.5017200
       1217.1000       -12.390300        16.782400
       1231.5500        10.427700        16.648200
       1251.4700        14.527400        16.467500
       1271.7200        16.782500        16.290200
       1292.2900        18.376400        16.116700
       1313.1900        19.626700        15.945100
       1334.4300        20.665700        15.775400
       1356.0100        21.562800        15.607500
       1377.9400        22.359200        15.441200
       1400.2300        23.082100        15.276700
       1414.5000        23.510100        15.173600
       1414.7000        23.515900        15.172600
       1422.8800        23.752200        15.114300
       1445.8900        24.389100        14.953300
       1469.2800        25.016400        14.776800
       1493.0400        25.644700        14.576200
       1517.1900        26.215200        14.269900
       1541.7300        26.708700        13.955200
       1566.6700        27.141100        13.647400
       1592.0100        27.533000        13.346500
       1617.7600        27.891400        13.052300
       1643.9200        28.221400        12.764400
       1670.5100        28.527100        12.483000
       1697.5300        28.811600        12.207800
       1724.9900        29.084000        11.938700
       1752.8900        29.338400        11.663400
       1781.2400        29.571100        11.390400
       1810.0500        29.784500        11.120800
       1839.3200        29.980100        10.857500
       1869.0700        30.161100        10.600400
       1899.3000        30.328900        10.349400
       1930.0200        30.484900        10.104600
       1961.2400        30.630400        9.8654600
       1992.9600        30.764300        9.6317900
       2025.2000        30.896400        9.4090900
       2057.9500        31.021300        9.1806200
       2091.2400        31.133900        8.9564100
       2125.0600        31.237800        8.7368000
       2159.4300        31.333600        8.5218000
       2194.3600        31.422300        8.3113900
       2229.8500        31.504000        8.1048800
       2265.9200        31.579100        7.9030700
       2302.5700        31.648200        7.7055700
       2339.8100        31.711700        7.5123100
       2377.6600        31.769700        7.3231900
       2416.1100        31.822900        7.1383900
       2455.1900        31.871200        6.9573500
       2494.9000        31.914800        6.7805200
       2535.2600        31.954300        6.6077900
       2576.2600        31.989800        6.4389800
       2617.9300        32.021700        6.2740800
       2660.2700        32.050100        6.1129700
       2703.3000        32.075000        5.9552900
       2747.0300        32.096700        5.8015600
       2791.4600        32.115500        5.6512500
       2836.6100        32.131300        5.5047300
       2882.4900        32.144700        5.3617700
       2929.1100        32.155800        5.2220900
       2976.4800        32.164400        5.0856400
       3024.6300        32.170700        4.9524800
       3073.5500        32.174900        4.8226800
       3123.2600        32.177200        4.6959900
       3173.7800        32.177700        4.5724000
       3225.1100        32.176400        4.4518500
       3277.2700        32.173500        4.3342900
       3330.2800        32.169100        4.2196300
       3384.1500        32.163300        4.1078400
       3438.8800        32.156100        3.9988200
       3494.5000        32.147600        3.8925400
       3551.0200        32.138000        3.7889600
       3608.4600        32.127300        3.6879700
       3666.8200        32.115500        3.5895200
       3726.1300        32.102700        3.4935800
       3786.4000        32.089000        3.4001000
       3847.6400        32.074500        3.3090100
       3909.8700        32.059200        3.2202200
       3973.1100        32.043100        3.1336900
       4037.3800        32.026300        3.0494500
       4102.6800        32.008900        2.9673300
       4169.0300        31.990900        2.8873500
       4236.4600        31.972300        2.8094500
       4304.9800        31.953200        2.7335000
       4374.6200        31.933500        2.6596000
       4445.3700        31.913400        2.5876300
       4517.2700        31.892900        2.5175100
       4590.3300        31.871900        2.4491600
       4664.5800        31.850500        2.3826800
