;  Atomic scattering factors for Hf.
;   
;  Concatenation of data from CXRO <http://www-cxro.lbl.gov>
;  and LLNL <http://www-phys.llnl.gov/V_Div/scattering/asf.html>
;  
;  E (eV) f1 f2
;---------------
       10.000000       -9999.0000        2.6233800
       10.161700       -9999.0000        2.7148500
       10.326100       -9999.0000        2.8095100
       10.493100       -9999.0000        2.9032600
       10.662800       -9999.0000        2.9824700
       10.835300       -9999.0000        3.0638400
       11.010600       -9999.0000        3.1474400
       11.188600       -9999.0000        3.2134600
       11.369600       -9999.0000        3.2750900
       11.553500       -9999.0000        3.3378900
       11.740400       -9999.0000        3.4018900
       11.930300       -9999.0000        3.4437200
       12.123200       -9999.0000        3.4847900
       12.319300       -9999.0000        3.5263400
       12.518600       -9999.0000        3.5616700
       12.721000       -9999.0000        3.5927100
       12.926800       -9999.0000        3.6240200
       13.135900       -9999.0000        3.6556000
       13.348300       -9999.0000        3.6853400
       13.564200       -9999.0000        3.6629600
       13.783600       -9999.0000        3.6407100
       14.006600       -9999.0000        3.6186100
       14.233100       -9999.0000        3.5996400
       14.463300       -9999.0000        3.5837900
       14.697300       -9999.0000        3.5680100
       14.935000       -9999.0000        3.5523000
       15.176500       -9999.0000        3.5296500
       15.422000       -9999.0000        3.4946000
       15.671400       -9999.0000        3.4598900
       15.924900       -9999.0000        3.4255200
       16.182500       -9999.0000        3.3915000
       16.444200       -9999.0000        3.3453500
       16.710200       -9999.0000        3.2924900
       16.980500       -9999.0000        3.2404700
       17.255100       -9999.0000        3.1892600
       17.534200       -9999.0000        3.1388700
       17.817800       -9999.0000        3.0855100
       18.106000       -9999.0000        3.0319400
       18.398900       -9999.0000        2.9793000
       18.696400       -9999.0000        2.9275700
       18.998800       -9999.0000        2.8767400
       19.306100       -9999.0000        2.8267900
       19.618400       -9999.0000        2.7814300
       19.935700       -9999.0000        2.7392200
       20.258200       -9999.0000        2.6976600
       20.585800       -9999.0000        2.6567200
       20.918800       -9999.0000        2.6164100
       21.257100       -9999.0000        2.5767100
       21.600900       -9999.0000        2.5424200
       21.950300       -9999.0000        2.5154700
       22.305300       -9999.0000        2.4888100
       22.666100       -9999.0000        2.4624300
       23.032700       -9999.0000        2.4363300
       23.405300       -9999.0000        2.4105100
       23.783800       -9999.0000        2.3789600
       24.168500       -9999.0000        2.3463500
       24.559400       -9999.0000        2.3141900
       24.956600       -9999.0000        2.2824700
       25.360300       -9999.0000        2.2522300
       25.770500       -9999.0000        2.2235500
       26.187300       -9999.0000        2.1952300
       26.610900       -9999.0000        2.1707200
       27.041300       -9999.0000        2.1789900
       27.478600       -9999.0000        2.1872800
       27.923100       -9999.0000        2.1956000
       28.374700       -9999.0000        2.2578700
       28.833700       -9999.0000        2.3284800
       29.300000       0.44462100        2.4012900
       29.773900       0.13682800        2.4822300
       30.255500      -0.17577200        2.6264200
       30.744900      -0.48972900        2.7789700
       31.242100      -0.83056300        2.9403900
       31.747500       -1.2033500        3.1320700
       32.260900       -1.6142800        3.3484900
       32.782700       -2.1539800        3.6111000
       33.313000       -2.6696100        4.1107000
       33.851800       -3.1158200        4.6794200
       34.399300       -3.5236800        5.3268300
       34.955700       -3.8810300        6.0638000
       35.521100       -4.1503200        6.9027400
       36.095600       -4.3323700        7.7992200
       36.679400       -4.3812500        8.8015700
       37.272700       -4.2066900        9.8305100
       37.875500       -3.9587600        10.725400
       38.488200       -3.5436800        11.701800
       39.110700       -3.0777300        12.400300
       39.743200       -2.6369600        13.133000
       40.386100       -2.1265200        13.909000
       41.039300       -1.4239000        14.679200
       41.703100      -0.70581600        15.189300
       42.377600     -0.030714500        15.717200
       43.063000       0.75641000        16.263300
       43.759500        1.6796200        16.698000
       44.467300        2.5586500        16.889600
       45.186500        3.3860400        17.083400
       45.917400        4.2875300        17.192800
       46.660000        5.1289700        17.121300
       47.414700        5.8450600        17.050200
       48.181600        6.5359000        16.979300
       48.960900        7.3218100        16.908800
       49.752800        8.0905400        16.621500
       50.557600        8.6918100        16.289800
       51.375300        9.2239800        15.964700
       52.206200        9.7214500        15.643200
       53.050600        10.173600        15.289800
       53.908700        10.563600        14.944300
       54.780600        10.918900        14.606700
       55.666700        11.245000        14.276700
       56.567000        11.549000        13.954200
       57.482000        11.839800        13.639000
       58.411700        12.141900        13.330800
       59.356400        12.452900        12.937100
       60.316500        12.682800        12.492200
       61.292100        12.827100        12.062500
       62.283400        12.924700        11.647700
       63.290800        12.978100        11.247100
       64.314500        12.988800        10.860300
       65.354700        12.939700        10.486800
       66.411800        12.826200        10.147600
       67.485900        12.698600        9.9453200
       68.577500        12.616400        9.7470300
       69.686700        12.537900        9.5527000
       70.813800        12.452600        9.3622500
       71.959100        12.353000        9.1755800
       73.123000        12.232000        8.9926400
       74.305700        12.051200        8.8133500
       75.507600        11.813200        8.6954200
       76.728900        11.603900        8.7220000
       77.969900        11.463200        8.7486600
       79.231000        11.347700        8.7754000
       80.512500        11.245300        8.8022300
       81.814700        11.147800        8.8291300
       83.138000        11.042800        8.8561100
       84.482700        10.924600        8.9248300
       85.849100        10.839000        9.0128300
       87.237700        10.771700        9.1017000
       88.648700        10.713700        9.1914500
       90.082500        10.657900        9.2820700
       91.539500        10.601400        9.3794600
       93.020100        10.553900        9.5000700
       94.524600        10.522500        9.6222100
       96.053500        10.500600        9.7459400
       97.607100        10.486100        9.8712500
       99.185800        10.477800        9.9981700
       100.79000        10.474900        10.126700
       102.42000        10.476400        10.256900
       104.07700        10.481700        10.388800
       105.76000        10.489800        10.522400
       107.47100        10.498900        10.657700
       109.20900        10.505100        10.798800
       110.97500        10.517200        10.955400
       112.77000        10.540600        11.114300
       114.59400        10.570500        11.275500
       116.44800        10.606100        11.439000
       118.33100        10.646900        11.604900
       120.24500        10.692800        11.773200
       122.19000        10.743500        11.943900
       124.16600        10.799100        12.117100
       126.17500        10.859500        12.292900
       128.21500        10.924800        12.471100
       130.28900        10.995000        12.652000
       132.39700        11.070300        12.835500
       134.53800        11.151100        13.021600
       136.71400        11.238800        13.210500
       138.92500        11.334500        13.401000
       141.17200        11.434500        13.585000
       143.45600        11.535200        13.771500
       145.77600        11.639000        13.960500
       148.13400        11.746500        14.152200
       150.53000        11.858200        14.346500
       152.96400        11.974400        14.543400
       155.43900        12.095300        14.743100
       157.95300        12.221300        14.945500
       160.50700        12.353100        15.150600
       163.10300        12.491100        15.357600
       165.74200        12.634000        15.566700
       168.42200        12.782900        15.778800
       171.14600        12.938400        15.993700
       173.91500        13.101200        16.211500
       176.72700        13.272200        16.432300
       179.58600        13.452700        16.656200
       182.49100        13.646000        16.883000
       185.44200        13.858500        17.113000
       188.44200        14.088100        17.313700
       191.48900        14.305800        17.507400
       194.58700        14.522900        17.703400
       197.73400        14.743000        17.901500
       200.93200        14.968200        18.101800
       204.18200        15.200400        18.304400
       207.48500        15.442000        18.509300
       210.84000        15.697700        18.716400
       214.25100        15.981100        18.912600
       217.71600        16.256400        19.075700
       221.23700        16.523100        19.240300
       224.81600        16.788300        19.406300
       228.45200        17.055500        19.573800
       232.14700        17.326500        19.742700
       235.90200        17.603000        19.913000
       239.71700        17.886700        20.084800
       243.59500        18.182100        20.258100
       247.53500        18.501100        20.424600
       251.53800        18.815200        20.565200
       255.60700        19.124000        20.706700
       259.74100        19.435100        20.849300
       263.94200        19.751400        20.992800
       268.21100        20.075400        21.137300
       272.54900        20.410100        21.282800
       276.95700        20.760000        21.429300
       281.43700        21.133800        21.576800
       285.98900        21.562600        21.725400
       290.61500        22.019100        21.747800
       295.31500        22.414300        21.739000
       300.09200        22.769600        21.730200
       304.94500        23.106600        21.721300
       309.87800        23.429000        21.712500
       314.89000        23.738800        21.703700
       319.98300        24.036100        21.694800
       325.15800        24.315200        21.686000
       330.41800        24.587200        21.704300
       335.76200        24.865400        21.726500
       341.19200        25.147300        21.748600
       346.71100        25.429100        21.770800
       352.31900        25.710600        21.793000
       358.01700        25.991400        21.815200
       363.80800        26.271300        21.837400
       369.69200        26.549200        21.859700
       375.67200        26.825000        21.886300
       381.74800        27.103800        21.915800
       387.92200        27.385600        21.945400
       394.19700        27.669000        21.975000
       400.57300        27.954200        22.004700
       407.05200        28.241000        22.034400
       413.63500        28.530000        22.065200
       420.32600        28.822300        22.096500
       427.12400        29.118500        22.127800
       434.03200        29.419000        22.159100
       441.05200        29.725200        22.190500
       448.18600        30.038900        22.221900
       455.43500        30.375000        22.253400
       462.80200        30.724400        22.249200
       470.28700        31.050700        22.220900
       477.89400        31.362100        22.192500
       485.62300        31.664400        22.164300
       493.47800        31.958500        22.136000
       501.45900        32.242400        22.107800
       509.57000        32.500600        22.079600
       517.81200        32.759500        22.110900
       526.18700        33.046300        22.154800
       534.69800        33.359800        22.198700
       543.34600        33.692200        22.242800
       552.13400        34.046100        22.287000
       561.06500        34.425800        22.331200
       570.13900        34.892800        22.344400
       579.36100        35.332700        22.256300
       588.73200        35.720900        22.168600
       598.25400        36.102100        22.081100
       607.93000        36.483200        21.994100
       617.76300        36.867600        21.907300
       627.75500        37.325700        21.816500
       637.90800        37.764600        21.605400
       648.22600        38.140300        21.375400
       658.71100        38.477900        21.134000
       669.36500        38.764900        20.895300
       680.19100        39.027500        20.690600
       691.19300        39.301100        20.511700
       702.37200        39.595900        20.335700
       713.73300        39.901300        20.117700
       725.27700        40.179500        19.872300
       737.00800        40.424800        19.629700
       748.92800        40.654400        19.390000
       761.04200        40.871500        19.152900
       773.35100        41.078100        18.917200
       785.85900        41.274100        18.679300
       798.57000        41.456700        18.440200
       811.48600        41.625700        18.204100
       824.61100        41.784100        17.970900
       837.94900        41.933800        17.740700
       851.50200        42.074800        17.511200
       865.27400        42.206300        17.282500
       879.26900        42.327800        17.054700
       893.49100        42.439400        16.829800
       907.94300        42.542800        16.607800
       922.62800        42.645800        16.388600
       937.55100        42.740800        16.157400
       952.71500        42.818300        15.925400
       968.12400        42.883100        15.693300
       983.78300        42.935800        15.464600
       999.69500        42.978300        15.236900
       1015.8600        43.016900        15.010200
       1032.2900        43.042500        14.767300
       1048.9900        43.042300        14.525100
       1065.9600        43.023700        14.283700
       1083.2000        42.985500        14.046300
       1100.7200        42.929400        13.812500
       1118.5200        42.855200        13.582400
       1136.6100        42.762300        13.356000
       1155.0000        42.650200        13.133200
       1173.6800        42.517700        12.914000
       1192.6600        42.363600        12.698200
       1211.9500        42.186300        12.486000
       1231.5500        41.983900        12.277300
       1251.4700        41.754100        12.071800
       1271.7200        41.493900        11.869800
       1292.2900        41.200300        11.671500
       1313.1900        40.869400        11.476500
       1334.4300        40.495900        11.284600
       1356.0100        40.073400        11.095600
       1377.9400        39.593900        10.909700
       1400.2300        39.047300        10.726900
       1422.8800        38.420300        10.546900
       1445.8900        37.696100        10.369500
       1469.2800        36.849400        10.192300
       1493.0400        35.846100        10.013900
       1517.1900        34.626000        9.8207700
       1541.7300        33.084400        9.6288800
       1566.6700        31.078700        9.4406600
       1592.0100        28.303100        9.2560400
       1617.7600        23.998700        9.0749400
       1643.9200        15.122400        8.8972800
       1661.6000       -39.149900        8.7807600
       1661.8000       -39.131700        42.128300
       1670.5100        8.8200000        41.808500
       1697.5300        24.469300        40.842200
       1724.9900        31.018600        39.898200
       1752.8900        35.266000        38.976000
       1781.2400        38.406900        38.075100
       1810.0500        40.881400        37.194900
       1839.3200        42.900900        36.334500
       1869.0700        44.582200        35.493600
       1899.3000        45.994900        34.671500
       1930.0200        47.180700        33.868500
       1961.2400        48.160600        33.083800
       1992.9600        48.934900        32.317100
       2025.2000        49.474000        31.575500
       2057.9500        49.665100        30.843900
       2091.2400        48.873300        30.128100
       2107.5000        41.563600        29.788500
       2107.7000        41.570100        34.558100
       2125.0600        49.848700        34.133700
       2159.4300        52.222600        33.318600
       2194.3600        53.614200        32.524600
       2229.8500        54.643000        31.748200
       2265.9200        55.433500        30.991100
       2302.5700        55.999900        30.252200
       2339.8100        56.195100        29.530800
       2365.3000        53.222700        29.053600
       2365.5000        53.226400        30.999700
       2377.6600        56.419200        30.767000
       2416.1100        57.889300        30.050000
       2455.1900        58.748100        29.350000
       2494.9000        59.391300        28.666400
       2535.2600        59.859800        27.999900
       2576.2600        60.031100        27.348500
       2600.8000        57.922600        26.970700
       2601.0000        57.934000        28.425000
       2617.9300        60.447800        28.151400
       2660.2700        61.541600        27.485900
       2703.3000        62.255100        26.837100
       2747.0300        62.837200        26.204300
       2791.4600        63.340400        25.586500
       2836.6100        63.785600        24.985000
       2882.4900        64.186200        24.397400
       2929.1100        64.548200        23.824200
       2976.4800        64.878100        23.265800
       3024.6300        65.179400        22.720600
       3073.5500        65.455500        22.189300
       3123.2600        65.709000        21.670300
       3173.7800        65.941100        21.164700
       3225.1100        66.155600        20.670700
       3277.2700        66.351900        20.189800
       3330.2800        66.532600        19.719900
       3384.1500        66.699300        19.262000
       3438.8800        66.852400        18.814200
       3494.5000        66.992400        18.377900
       3551.0200        67.121000        17.951900
       3608.4600        67.238600        17.536200
       3666.8200        67.346100        17.131000
       3726.1300        67.444500        16.734100
       3786.4000        67.533400        16.347900
       3847.6400        67.614400        15.970600
       3909.8700        67.688100        15.601700
       3973.1100        67.753600        15.241500
       4037.3800        67.812200        14.889800
       4102.6800        67.864300        14.546300
       4169.0300        67.910100        14.210700
       4236.4600        67.950000        13.883000
       4304.9800        67.984400        13.562600
       4374.6200        68.013300        13.249500
