;  Atomic scattering factors for Hg.
;   
;  Concatenation of data from CXRO <http://www-cxro.lbl.gov>
;  and LLNL <http://www-phys.llnl.gov/V_Div/scattering/asf.html>
;  
;  E (eV) f1 f2
;---------------
       10.000000       -9999.0000        3.0725300
       10.161700       -9999.0000        3.0592600
       10.326100       -9999.0000        3.0460500
       10.493100       -9999.0000        3.0329000
       10.662800       -9999.0000        3.0198000
       10.835300       -9999.0000        3.0067600
       11.010600       -9999.0000        3.0244800
       11.188600       -9999.0000        3.0451700
       11.369600       -9999.0000        3.0660000
       11.553500       -9999.0000        3.0869800
       11.740400       -9999.0000        3.1080900
       11.930300       -9999.0000        3.1293500
       12.123200       -9999.0000        3.1507600
       12.319300       -9999.0000        3.1723200
       12.518600       -9999.0000        3.1940200
       12.721000       -9999.0000        3.2158700
       12.926800       -9999.0000        3.2378700
       13.135900       -9999.0000        3.2608500
       13.348300       -9999.0000        3.3133300
       13.564200       -9999.0000        3.3666600
       13.783600       -9999.0000        3.4208400
       14.006600       -9999.0000        3.4759000
       14.233100       -9999.0000        3.5318400
       14.463300       -9999.0000        3.5886900
       14.697300       -9999.0000        3.6545400
       14.935000       -9999.0000        3.7333200
       15.176500       -9999.0000        3.8137900
       15.422000       -9999.0000        3.8960000
       15.671400       -9999.0000        3.9799700
       15.924900       -9999.0000        4.0657600
       16.182500       -9999.0000        4.1534000
       16.444200       -9999.0000        4.2429300
       16.710200       -9999.0000        4.3351900
       16.980500       -9999.0000        4.4501800
       17.255100       -9999.0000        4.5682200
       17.534200       -9999.0000        4.6893800
       17.817800       -9999.0000        4.8137700
       18.106000       -9999.0000        4.9414500
       18.398900       -9999.0000        5.0725200
       18.696400       -9999.0000        5.2070700
       18.998800       -9999.0000        5.3451800
       19.306100       -9999.0000        5.5138600
       19.618400       -9999.0000        5.6910200
       19.935700       -9999.0000        5.8738800
       20.258200       -9999.0000        6.0626100
       20.585800       -9999.0000        6.2574100
       20.918800       -9999.0000        6.4584600
       21.257100       -9999.0000        6.6659700
       21.600900       -9999.0000        6.8786700
       21.950300       -9999.0000        7.0867400
       22.305300       -9999.0000        7.3011100
       22.666100       -9999.0000        7.5219400
       23.032700       -9999.0000        7.7494700
       23.405300       -9999.0000        7.9838800
       23.783800       -9999.0000        8.2253800
       24.168500       -9999.0000        8.4741800
       24.559400       -9999.0000        8.7098900
       24.956600       -9999.0000        8.9436600
       25.360300       -9999.0000        9.1836900
       25.770500       -9999.0000        9.4301700
       26.187300       -9999.0000        9.6832600
       26.610900       -9999.0000        9.9431400
       27.041300       -9999.0000        10.210000
       27.478600       -9999.0000        10.484000
       27.923100       -9999.0000        10.696000
       28.374700       -9999.0000        10.888500
       28.833700       -9999.0000        11.084400
       29.300000       -2.9363600        11.283900
       29.773900       -2.8275200        11.486900
       30.255500       -2.7251400        11.693700
       30.744900       -2.6380200        11.904100
       31.242100       -2.5526000        12.162800
       31.747500       -2.4418700        12.430700
       32.260900       -2.3143000        12.704400
       32.782700       -2.1722100        12.984200
       33.313000       -2.0139600        13.270200
       33.851800       -1.8305200        13.562400
       34.399300       -1.6029600        13.840000
       34.955700       -1.3891500        14.074900
       35.521100       -1.1865900        14.313800
       36.095600      -0.98348500        14.556700
       36.679400      -0.77646700        14.803800
       37.272700      -0.56320400        15.055000
       37.875500      -0.34144700        15.310500
       38.488200      -0.10696500        15.570400
       39.110700       0.13791500        15.822000
       39.743200       0.38724300        16.076600
       40.386100       0.64514000        16.335200
       41.039300       0.91461000        16.598000
       41.703100        1.1981400        16.865000
       42.377600        1.4989100        17.136300
       43.063000        1.8213300        17.412000
       43.759500        2.1817200        17.692100
       44.467300        2.6196700        17.928600
       45.186500        3.0135500        18.096600
       45.917400        3.3847900        18.266100
       46.660000        3.7536700        18.437300
       47.414700        4.1255200        18.610100
       48.181600        4.5044500        18.784500
       48.960900        4.8945400        18.960500
       49.752800        5.3009300        19.138100
       50.557600        5.7323100        19.317500
       51.375300        6.2175300        19.498500
       52.206200        6.7463400        19.566200
       53.050600        7.2144800        19.598700
       53.908700        7.6531600        19.631200
       54.780600        8.0823700        19.663800
       55.666700        8.5073200        19.696400
       56.567000        8.9323500        19.729100
       57.482000        9.3621500        19.761800
       58.411700        9.8014100        19.786900
       59.356400        10.241300        19.806200
       60.316500        10.688800        19.825600
       61.292100        11.150300        19.845000
       62.283400        11.634400        19.864400
       63.290800        12.159800        19.883800
       64.314500        12.788700        19.866400
       65.354700        13.371800        19.656600
       66.411800        13.884400        19.449000
       67.485900        14.365100        19.243600
       68.577500        14.853400        19.040400
       69.686700        15.334200        18.751100
       70.813800        15.750000        18.447800
       71.959100        16.122000        18.149500
       73.123000        16.461700        17.860800
       74.305700        16.790700        17.590700
       75.507600        17.114100        17.324700
       76.728900        17.436600        17.062700
       77.969900        17.777000        16.804700
       79.231000        18.127900        16.474100
       80.512500        18.419800        16.123200
       81.814700        18.672700        15.779900
       83.138000        18.903500        15.443800
       84.482700        19.117100        15.114900
       85.849100        19.317800        14.793000
       87.237700        19.511500        14.477900
       88.648700        19.714200        14.152100
       90.082500        19.881600        13.807500
       91.539500        20.026200        13.471300
       93.020100        20.154900        13.143300
       94.524600        20.271800        12.823300
       96.053500        20.380400        12.511000
       97.607100        20.487900        12.206400
       99.185800        20.614500        11.884400
       100.79000        20.702000        11.540200
       102.42000        20.761900        11.205900
       104.07700        20.808000        10.881300
       105.76000        20.845000        10.566100
       107.47100        20.878700        10.260100
       109.20900        20.920700        9.9628600
       110.97500        21.015000        9.6574400
       112.77000        21.051900        9.2134100
       114.59400        21.010700        8.7898000
       116.44800        20.915300        8.3856700
       118.33100        20.779700        8.0001300
       120.24500        20.598600        7.6323000
       122.19000        20.365500        7.3257000
       124.16600        20.158600        7.0730100
       126.17500        19.957900        6.8290200
       128.21500        19.752900        6.5934400
       130.28900        19.538900        6.3660100
       132.39700        19.306700        6.1504200
       134.53800        19.070500        5.9548000
       136.71400        18.828500        5.7654000
       138.92500        18.574000        5.5820200
       141.17200        18.300900        5.4044900
       143.45600        18.007800        5.2418300
       145.77600        17.695100        5.0875000
       148.13400        17.337000        4.9377200
       150.53000        16.964200        4.8721500
       152.96400        16.596800        4.8134300
       155.43900        16.189100        4.7554100
       157.95300        15.758500        4.8007400
       160.50700        15.378900        4.8843400
       163.10300        15.017000        4.9694100
       165.74200        14.650600        5.0559500
       168.42200        14.244600        5.1440100
       171.14600        13.817800        5.3453900
       173.91500        13.442800        5.5866200
       176.72700        13.105500        5.8387200
       179.58600        12.785000        6.1022100
       182.49100        12.472100        6.3800400
       185.44200        12.174700        6.6788800
       188.44200        11.891100        6.9917200
       191.48900        11.618500        7.3192000
       194.58700        11.355300        7.6620300
       197.73400        11.100600        8.0209000
       200.93200        10.849100        8.3966000
       204.18200        10.601800        8.8049800
       207.48500        10.377600        9.2448500
       210.84000        10.175500        9.7067000
       214.25100        9.9956800        10.191600
       217.71600        9.8424100        10.700800
       221.23700        9.7223700        11.235300
       224.81600        9.6574400        11.796600
       228.45200        9.6773000        12.306600
       232.14700        9.6664800        12.767000
       235.90200        9.6310200        13.244700
       239.71700        9.6000400        13.740300
       243.59500        9.5779800        14.254400
       247.53500        9.5698200        14.787700
       251.53800        9.5795900        15.341000
       255.60700        9.6158700        15.914900
       259.74100        9.6875500        16.489600
       263.94200        9.7688000        17.066700
       268.21100        9.8637200        17.664000
       272.54900        9.9848700        18.282100
       276.95700        10.138900        18.922000
       281.43700        10.336800        19.584200
       285.98900        10.655200        20.233700
       290.61500        10.955800        20.799400
       295.31500        11.237400        21.380900
       300.09200        11.539400        21.978600
       304.94500        11.872300        22.593100
       309.87800        12.250400        23.224700
       314.89000        12.737400        23.874100
       319.98300        13.299900        24.385500
       325.15800        13.796200        24.819600
       330.41800        14.264800        25.261600
       335.76200        14.731300        25.711300
       341.19200        15.208100        26.169100
       346.71100        15.704800        26.635100
       352.31900        16.232300        27.109300
       358.01700        16.858900        27.592000
       363.80800        17.498500        27.927900
       369.69200        18.088000        28.246700
       375.67200        18.666100        28.569100
       381.74800        19.250500        28.895300
       387.92200        19.858000        29.225200
       394.19700        20.530900        29.513200
       400.57300        21.174100        29.734100
       407.05200        21.788300        29.956600
       413.63500        22.408600        30.180800
       420.32600        23.050900        30.406700
       427.12400        23.774000        30.616300
       434.03200        24.456300        30.674400
       441.05200        25.086900        30.732700
       448.18600        25.688400        30.791000
       455.43500        26.279400        30.849500
       462.80200        26.867100        30.891800
       470.28700        27.435400        30.921200
       477.89400        27.987500        30.951100
       485.62300        28.532000        30.980300
       493.47800        29.071200        31.009400
       501.45900        29.610100        31.039400
       509.57000        30.155400        31.070100
       517.81200        30.729000        31.090100
       526.18700        31.316200        31.070000
       534.69800        31.888200        30.975900
       543.34600        32.390300        30.845200
       552.13400        32.836100        30.714100
       561.06500        33.219800        30.577400
       570.13900        33.459100        30.468500
       579.36100        33.719800        30.572300
       588.73200        34.040200        30.737300
       598.25400        34.450900        30.942300
       607.93000        34.928100        31.148100
       617.76300        35.467400        31.355200
       627.75500        36.098000        31.556600
       637.90800        36.803500        31.673600
       648.22600        37.538800        31.680500
       658.71100        38.211600        31.614300
       669.36500        38.860300        31.547400
       680.19100        39.512400        31.460500
       691.19300        40.171400        31.354400
       702.37200        40.857500        31.213100
       713.73300        41.543200        30.967500
       725.27700        42.132400        30.651800
       737.00800        42.650800        30.339000
       748.92800        43.115000        30.029100
       761.04200        43.516600        29.725600
       773.35100        43.836000        29.462800
       785.85900        44.114100        29.323200
       798.57000        44.484800        29.284700
       811.48600        44.927000        29.245900
       824.61100        45.426300        29.206900
       837.94900        46.011300        29.167700
       851.50200        46.676000        29.022300
       865.27400        47.367500        28.746400
       879.26900        47.945200        28.357000
       893.49100        48.445900        27.972500
       907.94300        48.903000        27.592800
       922.62800        49.328700        27.217800
       937.55100        49.729100        26.845900
       952.71500        50.108800        26.478200
       968.12400        50.471500        26.114800
       983.78300        50.822200        25.756000
       999.69500        51.167100        25.396600
       1015.8600        51.517100        25.036200
       1032.2900        51.837900        24.626000
       1048.9900        52.123500        24.222300
       1065.9600        52.382400        23.825400
       1083.2000        52.621000        23.434600
       1100.7200        52.841500        23.049800
       1118.5200        53.045400        22.670900
       1136.6100        53.234100        22.298200
       1155.0000        53.408600        21.931100
       1173.6800        53.569100        21.569400
       1192.6600        53.716500        21.213700
       1211.9500        53.851700        20.863400
       1231.5500        53.974600        20.518300
       1251.4700        54.085400        20.178500
       1271.7200        54.184700        19.844100
       1292.2900        54.272400        19.514600
       1313.1900        54.348800        19.190700
       1334.4300        54.414500        18.871700
       1356.0100        54.469100        18.557400
       1377.9400        54.512700        18.248100
       1400.2300        54.545600        17.943700
       1422.8800        54.567800        17.643900
       1445.8900        54.580000        17.348900
       1469.2800        54.583900        17.056700
       1493.0400        54.579700        16.766100
       1517.1900        54.558900        16.466700
       1541.7300        54.518300        16.170700
       1566.6700        54.458700        15.879700
       1592.0100        54.381500        15.593800
       1617.7600        54.286500        15.312900
       1643.9200        54.173400        15.037100
       1670.5100        54.041500        14.765900
       1697.5300        53.889300        14.499400
       1724.9900        53.720600        14.237300
       1752.8900        53.527000        13.969900
       1781.2400        53.301700        13.703800
       1810.0500        53.042000        13.439800
       1839.3200        52.744200        13.180900
       1869.0700        52.405700        12.927000
       1899.3000        52.021000        12.677800
       1930.0200        51.583100        12.433600
       1961.2400        51.083200        12.194100
       1992.9600        50.506500        11.958900
       2025.2000        49.847100        11.734900
       2057.9500        49.074400        11.502000
       2091.2400        48.146100        11.271300
       2125.0600        47.012400        11.044600
       2159.4300        45.583800        10.820300
       2194.3600        43.691000        10.599200
       2229.8500        40.948600        10.381400
       2265.9200        36.013700        10.166600
       2294.8000        4.4785900        10.000200
       2295.0000        4.4825900        27.311900
       2302.5700        28.076500        27.177000
       2339.8100        36.154200        26.529200
       2377.6600        33.239200        25.898500
       2384.8000        17.960600        25.782300
       2385.0000        17.977200        37.400200
       2416.1100        41.198500        36.744200
       2455.1900        46.013300        35.947900
       2494.9000        49.062800        35.169000
       2535.2600        51.324500        34.408400
       2576.2600        53.103800        33.665400
       2617.9300        54.536900        32.938900
       2660.2700        55.691400        32.229700
       2703.3000        56.589800        31.535500
       2747.0300        57.205900        30.858000
       2791.4600        57.388300        30.195800
       2836.6100        55.911600        29.547900
       2847.0000        49.296000        29.402200
       2847.2000        49.301000        34.019500
       2882.4900        58.625300        33.445100
       2929.1100        60.639600        32.711400
       2976.4800        61.990500        31.994500
       3024.6300        63.051300        31.294000
       3073.5500        63.924500        30.609800
       3123.2600        64.646600        29.940700
       3173.7800        65.219400        29.287800
       3225.1100        65.579900        28.649800
       3277.2700        64.331500        28.025300
       3278.4000        63.083800        28.012100
       3278.6000        63.086600        29.592100
       3330.2800        66.804500        28.939300
       3384.1500        67.654700        28.284600
       3438.8800        68.268000        27.645800
       3494.5000        68.697200        27.022200
       3551.0200        68.625800        26.411200
       3561.5000        67.115000        26.300500
       3561.7000        67.116800        27.382300
       3608.4600        69.649800        26.903300
       3666.8200        70.401300        26.325600
       3726.1300        70.995700        25.757200
       3786.4000        71.510800        25.194800
       3847.6400        71.971000        24.642900
       3909.8700        72.389600        24.099100
       3973.1100        72.773600        23.564300
       4037.3800        73.126500        23.036400
       4102.6800        73.451100        22.518500
       4169.0300        73.751100        22.009000
       4236.4600        74.028200        21.508800
