;  Atomic scattering factors for Ho.
;   
;  Concatenation of data from CXRO <http://www-cxro.lbl.gov>
;  and LLNL <http://www-phys.llnl.gov/V_Div/scattering/asf.html>
;  
;  E (eV) f1 f2
;---------------
       10.000000       -9999.0000       0.16762400
       10.161700       -9999.0000       0.17164200
       10.326100       -9999.0000       0.17575700
       10.493100       -9999.0000       0.17997100
       10.662800       -9999.0000       0.18428600
       10.835300       -9999.0000       0.18870400
       11.010600       -9999.0000       0.19365800
       11.188600       -9999.0000       0.20085900
       11.369600       -9999.0000       0.20832900
       11.553500       -9999.0000       0.21607600
       11.740400       -9999.0000       0.22382600
       11.930300       -9999.0000       0.23136400
       12.123200       -9999.0000       0.23915600
       12.319300       -9999.0000       0.24721000
       12.518600       -9999.0000       0.25585600
       12.721000       -9999.0000       0.26503300
       12.926800       -9999.0000       0.27453800
       13.135900       -9999.0000       0.28421100
       13.348300       -9999.0000       0.29358200
       13.564200       -9999.0000       0.30326200
       13.783600       -9999.0000       0.31326100
       14.006600       -9999.0000       0.32358900
       14.233100       -9999.0000       0.33337500
       14.463300       -9999.0000       0.34329800
       14.697300       -9999.0000       0.35351700
       14.935000       -9999.0000       0.36435300
       15.176500       -9999.0000       0.37593600
       15.422000       -9999.0000       0.38788600
       15.671400       -9999.0000       0.40003100
       15.924900       -9999.0000       0.40858400
       16.182500       -9999.0000       0.41732000
       16.444200       -9999.0000       0.42624300
       16.710200       -9999.0000       0.43747700
       16.980500       -9999.0000       0.45518400
       17.255100       -9999.0000       0.47360800
       17.534200       -9999.0000       0.48686400
       17.817800       -9999.0000       0.49900400
       18.106000       -9999.0000       0.51144500
       18.398900       -9999.0000       0.52422900
       18.696400       -9999.0000       0.53838800
       18.998800       -9999.0000       0.55292900
       19.306100       -9999.0000       0.56786200
       19.618400       -9999.0000       0.58404800
       19.935700       -9999.0000       0.60070600
       20.258200       -9999.0000       0.61783900
       20.585800       -9999.0000       0.63891900
       20.918800       -9999.0000       0.66173500
       21.257100       -9999.0000       0.68536600
       21.600900       -9999.0000       0.71322900
       21.950300       -9999.0000       0.74803900
       22.305300       -9999.0000       0.79068900
       22.666100       -9999.0000       0.88185800
       23.032700       -9999.0000       0.97066000
       23.405300       -9999.0000        1.0611800
       23.783800       -9999.0000        1.3072700
       24.168500       -9999.0000        1.4495200
       24.559400       -9999.0000        1.6129500
       24.956600       -9999.0000        1.8682000
       25.360300       -9999.0000        2.2800800
       25.770500       -9999.0000        2.5652600
       26.187300       -9999.0000        2.9731300
       26.610900       -9999.0000        3.4704100
       27.041300       -9999.0000        4.0077100
       27.478600       -9999.0000        4.5797200
       27.923100       -9999.0000        5.1355300
       28.374700       -9999.0000        5.6540300
       28.833700       -9999.0000        6.1934900
       29.300000       -3.1296000        6.7849000
       29.773900       -3.1439200        7.4582200
       30.255500       -3.0775700        8.1983600
       30.744900       -2.8677300        9.0119400
       31.242100       -2.5228600        9.7126800
       31.747500       -2.0976100        10.442000
       32.260900       -1.4157700        11.039900
       32.782700      -0.85638800        11.451500
       33.313000      -0.29377400        11.878500
       33.851800       0.30662100        12.179500
       34.399300       0.87240900        12.460200
       34.955700        1.4919200        12.698400
       35.521100        2.0792300        12.856000
       36.095600        2.6993000        13.015500
       36.679400        3.3157500        12.981800
       37.272700        3.8292700        12.932200
       37.875500        4.2905000        12.882800
       38.488200        4.7273400        12.833500
       39.110700        5.1567000        12.784400
       39.743200        5.6125600        12.690100
       40.386100        5.9977900        12.544200
       41.039300        6.3407700        12.399900
       41.703100        6.6544300        12.257200
       42.377600        6.9449200        12.116300
       43.063000        7.2165800        11.976900
       43.759500        7.4720100        11.835100
       44.467300        7.7080500        11.692800
       45.186500        7.9277400        11.552300
       45.917400        8.1327300        11.413500
       46.660000        8.3241100        11.276400
       47.414700        8.5026200        11.140900
       48.181600        8.6687700        11.007000
       48.960900        8.8227400        10.874700
       49.752800        8.9637800        10.744000
       50.557600        9.0887700        10.614900
       51.375300        9.2040900        10.502500
       52.206200        9.3170300        10.392500
       53.050600        9.4238900        10.283600
       53.908700        9.5233300        10.175900
       54.780600        9.6144900        10.069300
       55.666700        9.6964000        9.9638200
       56.567000        9.7675200        9.8594600
       57.482000        9.8243100        9.7561800
       58.411700        9.8544000        9.6593600
       59.356400        9.8862300        9.6072000
       60.316500        9.9293500        9.5553200
       61.292100        9.9759200        9.5037300
       62.283400        10.021200        9.4524100
       63.290800        10.063400        9.4013800
       64.314500        10.100700        9.3506200
       65.354700        10.131200        9.3001300
       66.411800        10.148800        9.2499200
       67.485900        10.134800        9.2158000
       68.577500        10.139300        9.2200800
       69.686700        10.159500        9.2243400
       70.813800        10.184600        9.2286200
       71.959100        10.212200        9.2328900
       73.123000        10.240600        9.2371700
       74.305700        10.268400        9.2414600
       75.507600        10.294500        9.2457400
       76.728900        10.317500        9.2500300
       77.969900        10.335400        9.2543100
       79.231000        10.343900        9.2586100
       80.512500        10.328100        9.2736800
       81.814700        10.325800        9.3291700
       83.138000        10.338800        9.3850100
       84.482700        10.360400        9.4411700
       85.849100        10.387100        9.4976700
       87.237700        10.417600        9.5545100
       88.648700        10.451000        9.6116900
       90.082500        10.486900        9.6692100
       91.539500        10.525000        9.7270800
       93.020100        10.565100        9.7852900
       94.524600        10.607200        9.8438500
       96.053500        10.651500        9.9027600
       97.607100        10.698800        9.9620200
       99.185800        10.750900        10.021600
       100.79000        10.815300        10.081600
       102.42000        10.881700        10.109800
       104.07700        10.932600        10.133300
       105.76000        10.972600        10.156900
       107.47100        11.006300        10.180500
       109.20900        11.034600        10.204100
       110.97500        11.058700        10.227800
       112.77000        11.080600        10.251600
       114.59400        11.108100        10.269100
       116.44800        11.120800        10.268600
       118.33100        11.121300        10.268100
       120.24500        11.114700        10.267600
       122.19000        11.112600        10.267100
       124.16600        11.176600        10.250000
       126.17500        11.169600        10.064200
       128.21500        11.053500        9.8818300
       130.28900        10.864500        9.7027500
       132.39700        10.615900        9.5269100
       134.53800        10.284300        9.3195600
       136.71400        9.8448000        9.1135200
       138.92500        9.2961400        8.9120300
       141.17200        8.6841100        8.7150100
       143.45600        7.8448500        8.2421800
       145.77600        6.4258800        7.7045200
       148.13400        4.4073400        7.3042600
       150.53000        1.6172000        6.9249400
       152.96400       -3.8824500        6.3194300
       155.43900       -26.349700        11.401500
       157.95300       -5.6644100        49.422800
       160.50700        12.198700        41.023600
       163.10300        18.919700        33.011100
       165.74200        19.102900        26.582600
       168.42200        18.594200        25.196300
       171.14600        18.962300        23.882400
       173.91500        19.273700        22.637000
       176.72700        19.091700        21.545400
       179.58600        19.039300        21.214100
       182.49100        19.231000        20.887900
       185.44200        19.473100        20.566800
       188.44200        19.722500        20.250600
       191.48900        19.957500        19.939200
       194.58700        20.161500        19.632700
       197.73400        20.302800        19.330800
       200.93200        20.339900        19.153100
       204.18200        20.460300        19.085300
       207.48500        20.647000        19.017800
       210.84000        20.852900        18.950400
       214.25100        21.071700        18.883400
       217.71600        21.299500        18.816500
       221.23700        21.534700        18.749900
       224.81600        21.777700        18.683500
       228.45200        22.032000        18.617400
       232.14700        22.319200        18.550200
       235.90200        22.591100        18.401400
       239.71700        22.830000        18.253800
       243.59500        23.043400        18.107400
       247.53500        23.238900        17.962100
       251.53800        23.416500        17.818000
       255.60700        23.574100        17.675100
       259.74100        23.703200        17.533300
       263.94200        23.773400        17.424900
       268.21100        23.878400        17.384700
       272.54900        24.004600        17.344500
       276.95700        24.138300        17.304400
       281.43700        24.274300        17.264500
       285.98900        24.408900        17.224600
       290.61500        24.538700        17.184800
       295.31500        24.641000        17.145000
       300.09200        24.751000        17.160000
       304.94500        24.884100        17.175900
       309.87800        25.027600        17.191800
       314.89000        25.177700        17.207800
       319.98300        25.332300        17.223700
       325.15800        25.489900        17.239700
       330.41800        25.649100        17.255700
       335.76200        25.802500        17.271700
       341.19200        25.956500        17.305200
       346.71100        26.124200        17.345900
       352.31900        26.301400        17.386700
       358.01700        26.485800        17.427600
       363.80800        26.676800        17.468600
       369.69200        26.874400        17.509600
       375.67200        27.078900        17.550800
       381.74800        27.291100        17.592100
       387.92200        27.512300        17.633500
       394.19700        27.760100        17.673600
       400.57300        28.005200        17.675700
       407.05200        28.238200        17.677800
       413.63500        28.469000        17.679900
       420.32600        28.700000        17.682000
       427.12400        28.933000        17.684100
       434.03200        29.169300        17.686300
       441.05200        29.411200        17.688400
       448.18600        29.662000        17.690500
       455.43500        29.936400        17.692600
       462.80200        30.211200        17.644700
       470.28700        30.469200        17.590400
       477.89400        30.714800        17.536200
       485.62300        30.955900        17.482200
       493.47800        31.194900        17.428400
       501.45900        31.433500        17.374700
       509.57000        31.673400        17.321300
       517.81200        31.917000        17.268000
       526.18700        32.167200        17.214800
       534.69800        32.427300        17.161800
       543.34600        32.746200        17.109000
       552.13400        33.055500        16.948800
       561.06500        33.309500        16.775300
       570.13900        33.535400        16.603500
       579.36100        33.742300        16.433500
       588.73200        33.934300        16.265200
       598.25400        34.113800        16.098700
       607.93000        34.282300        15.933900
       617.76300        34.440800        15.770700
       627.75500        34.589400        15.609200
       637.90800        34.734800        15.453600
       648.22600        34.876200        15.289100
       658.71100        35.000300        15.117800
       669.36500        35.104300        14.948600
       680.19100        35.191000        14.803300
       691.19300        35.285700        14.676100
       702.37200        35.404800        14.551000
       713.73300        35.530200        14.396500
       725.27700        35.630700        14.222700
       737.00800        35.713000        14.051100
       748.92800        35.782800        13.881600
       761.04200        35.842400        13.713900
       773.35100        35.893500        13.546700
       785.85900        35.935100        13.376600
       798.57000        35.962200        13.204800
       811.48600        35.976100        13.035300
       824.61100        35.978200        12.867800
       837.94900        35.968700        12.702300
       851.50200        35.947400        12.537900
       865.27400        35.913900        12.374100
       879.26900        35.866200        12.211300
       893.49100        35.804400        12.050500
       907.94300        35.728600        11.891800
       922.62800        35.640900        11.735400
       937.55100        35.536300        11.572700
       952.71500        35.411700        11.410200
       968.12400        35.264400        11.248100
       983.78300        35.094500        11.088100
       999.69500        34.901600        10.929400
       1015.8600        34.685500        10.771900
       1032.2900        34.437600        10.606100
       1048.9900        34.152900        10.440800
       1065.9600        33.826000        10.276100
       1083.2000        33.453100        10.113600
       1100.7200        33.028600        9.9539200
       1118.5200        32.545000        9.7968700
       1136.6100        31.992000        9.6420500
       1155.0000        31.356000        9.4897200
       1173.6800        30.619200        9.3398700
       1192.6600        29.756100        9.1922000
       1211.9500        28.731000        9.0469900
       1231.5500        27.490300        8.9043000
       1251.4700        25.948900        8.7641600
       1271.7200        23.959700        8.6266800
       1292.2900        21.235400        8.4919000
       1313.1900        17.087100        8.3595700
       1334.4300        8.9827100        8.2293400
       1351.3000       -46.147000        8.1287600
       1351.5000       -46.124000        42.387800
       1356.0100       -4.0458000        42.184700
       1377.9400        15.902700        41.220100
       1400.2300        23.118700        40.277500
       1422.8800        27.689700        39.356500
       1445.8900        31.039700        38.456400
       1469.2800        33.668500        37.577400
       1493.0400        35.812200        36.719400
       1517.1900        37.601300        35.882400
       1541.7300        39.113900        35.064700
       1566.6700        40.397700        34.265400
       1592.0100        41.482100        33.484800
       1617.7600        42.381200        32.721900
       1643.9200        43.091000        31.975900
       1670.5100        43.579600        31.247100
       1697.5300        43.740900        30.535300
       1724.9900        42.971800        29.840200
       1741.1000        36.196900        29.444600
       1741.3000        36.218600        34.202000
       1752.8900        43.358000        33.888100
       1781.2400        45.869400        33.140600
       1810.0500        47.245400        32.409500
       1839.3200        48.231600        31.695200
       1869.0700        48.946200        30.996700
       1899.3000        49.240400        30.313600
       1922.7000        46.867900        29.802500
       1922.9000        46.888000        31.854000
       1930.0200        49.363600        31.687000
       1961.2400        51.100400        30.972600
       1992.9600        52.084900        30.274300
       2025.2000        52.842800        29.598000
       2057.9500        53.443700        28.931200
       2091.2400        53.862100        28.278600
       2125.0600        53.548000        27.641400
       2128.2000        52.323300        27.583600
       2128.4000        52.326100        28.731200
       2159.4300        54.900100        28.197500
       2194.3600        55.674900        27.617500
       2229.8500        56.301600        27.045300
       2265.9200        56.851700        26.481200
       2302.5700        57.349300        25.925900
       2339.8100        57.805100        25.377500
       2377.6600        58.224400        24.837300
       2416.1100        58.612900        24.306200
       2455.1900        58.973600        23.782700
       2494.9000        59.309100        23.268200
       2535.2600        59.621200        22.761800
       2576.2600        59.912300        22.264200
       2617.9300        60.183000        21.774600
       2660.2700        60.435700        21.294500
       2703.3000        60.670800        20.821300
       2747.0300        60.889200        20.357500
       2791.4600        61.091900        19.902100
       2836.6100        61.281700        19.456700
       2882.4900        61.456600        19.015900
       2929.1100        61.617600        18.586200
       2976.4800        61.767800        18.164700
       3024.6300        61.906300        17.750600
       3073.5500        62.033600        17.345200
       3123.2600        62.150300        16.947300
       3173.7800        62.257500        16.558300
       3225.1100        62.355500        16.175900
       3277.2700        62.443300        15.801400
       3330.2800        62.523000        15.435900
       3384.1500        62.595100        15.077000
       3438.8800        62.659000        14.725800
       3494.5000        62.715500        14.382300
       3551.0200        62.765600        14.046600
       3608.4600        62.809200        13.716600
       3666.8200        62.845700        13.394000
       3726.1300        62.875900        13.078500
       3786.4000        62.900400        12.769900
       3847.6400        62.919100        12.468000
       3909.8700        62.932500        12.172800
       3973.1100        62.940600        11.884100
       4037.3800        62.943700        11.601700
       4102.6800        62.941900        11.325600
       4169.0300        62.935500        11.055700
       4236.4600        62.924600        10.791800
       4304.9800        62.909200        10.533800
       4374.6200        62.889500        10.281600
