;  Atomic scattering factors for I.
;   
;  Concatenation of data from CXRO <http://www-cxro.lbl.gov>
;  and LLNL <http://www-phys.llnl.gov/V_Div/scattering/asf.html>
;  
;  E (eV) f1 f2
;---------------
       10.000000       -9999.0000        7.8167000
       10.161700       -9999.0000        7.5678100
       10.326100       -9999.0000        7.3268500
       10.493100       -9999.0000        7.0808100
       10.662800       -9999.0000        6.8332000
       10.835300       -9999.0000        6.7843500
       11.010600       -9999.0000        6.8088800
       11.188600       -9999.0000        7.2733400
       11.369600       -9999.0000        7.8677500
       11.553500       -9999.0000        8.5278600
       11.740400       -9999.0000        9.2433500
       11.930300       -9999.0000        10.009200
       12.123200       -9999.0000        10.789600
       12.319300       -9999.0000        11.062300
       12.518600       -9999.0000        11.341800
       12.721000       -9999.0000        11.425300
       12.926800       -9999.0000        11.372700
       13.135900       -9999.0000        11.320300
       13.348300       -9999.0000        11.268100
       13.564200       -9999.0000        11.209500
       13.783600       -9999.0000        11.115500
       14.006600       -9999.0000        11.022300
       14.233100       -9999.0000        10.930000
       14.463300       -9999.0000        10.838300
       14.697300       -9999.0000        10.747500
       14.935000       -9999.0000        10.657400
       15.176500       -9999.0000        10.457300
       15.422000       -9999.0000        10.190500
       15.671400       -9999.0000        9.9305600
       15.924900       -9999.0000        9.6772100
       16.182500       -9999.0000        9.4303400
       16.444200       -9999.0000        9.1897600
       16.710200       -9999.0000        8.9553200
       16.980500       -9999.0000        8.7268600
       17.255100       -9999.0000        8.5042300
       17.534200       -9999.0000        8.2872800
       17.817800       -9999.0000        8.0758600
       18.106000       -9999.0000        7.8698400
       18.398900       -9999.0000        7.6690700
       18.696400       -9999.0000        7.4217500
       18.998800       -9999.0000        7.1479900
       19.306100       -9999.0000        6.8843300
       19.618400       -9999.0000        6.6303900
       19.935700       -9999.0000        6.3858300
       20.258200       -9999.0000        6.1502800
       20.585800       -9999.0000        5.9234300
       20.918800       -9999.0000        5.7049400
       21.257100       -9999.0000        5.4945100
       21.600900       -9999.0000        5.2918400
       21.950300       -9999.0000        5.0966500
       22.305300       -9999.0000        4.9086500
       22.666100       -9999.0000        4.6891900
       23.032700       -9999.0000        4.4410700
       23.405300       -9999.0000        4.2060900
       23.783800       -9999.0000        3.9835300
       24.168500       -9999.0000        3.7727600
       24.559400       -9999.0000        3.5731300
       24.956600       -9999.0000        3.3840700
       25.360300       -9999.0000        3.2050100
       25.770500       -9999.0000        3.0354300
       26.187300       -9999.0000        2.8748200
       26.610900       -9999.0000        2.7227000
       27.041300       -9999.0000        2.5786400
       27.478600       -9999.0000        2.4422000
       27.923100       -9999.0000        2.3129800
       28.374700       -9999.0000        2.1933200
       28.833700       -9999.0000        2.0820600
       29.300000        8.6039000        1.9764500
       29.773900        8.4894500        1.8761900
       30.255500        8.3722600        1.7810100
       30.744900        8.2513000        1.6906700
       31.242100        8.1247600        1.6081500
       31.747500        7.9998600        1.5326900
       32.260900        7.8741200        1.4607600
       32.782700        7.7462800        1.3922100
       33.313000        7.6158400        1.3268800
       33.851800        7.4823800        1.2646200
       34.399300        7.3456200        1.2052700
       34.955700        7.2056800        1.1478400
       35.521100        7.0595100        1.0911500
       36.095600        6.9063800        1.0372700
       36.679400        6.7454400       0.98604100
       37.272700        6.5731200       0.93734700
       37.875500        6.3874000       0.90375300
       38.488200        6.2046300       0.87789900
       39.110700        6.0175100       0.85278600
       39.743200        5.8197300       0.82839000
       40.386100        5.6037800       0.80469300
       41.039300        5.3760900       0.80625300
       41.703100        5.1458000       0.81008900
       42.377600        4.9006200       0.81394200
       43.063000        4.6275700       0.82342500
       43.759500        4.3346600       0.84779500
       44.467300        4.0070500       0.87288800
       45.186500        3.6032400       0.90286600
       45.917400        3.0785000       0.97734500
       46.660000        2.3542200        1.3167000
       47.414700        1.7326000        2.0013400
       48.181600        1.2776000        3.0419800
       48.960900        1.2957400        4.6236900
       49.752800        3.1764900        7.0279200
       50.557600        5.8987300        4.8326500
       51.375300        5.9368600        2.8196700
       52.206200        4.9523300        1.6451800
       53.050600        3.7669800        1.3465700
       53.908700        2.9700600        1.3626800
       54.780600        2.1397700        1.4381900
       55.666700        1.4432200        1.9306100
       56.567000        1.1960700        2.5916300
       57.482000        1.2361700        2.4968300
       58.411700       0.80073400        2.2493100
       59.356400      -0.14758000        2.1923000
       60.316500      -0.99541600        2.5887300
       61.292100       -1.7389000        3.0568600
       62.283400       -2.4603400        3.6096200
       63.290800       -3.1653900        4.2623200
       64.314500       -3.8293200        5.0330800
       65.354700       -4.4067200        5.8725200
       66.411800       -4.9898900        6.7879000
       67.485900       -5.5405200        7.8459800
       68.577500       -5.9977300        9.0689700
       69.686700       -6.2671700        10.482600
       70.813800       -6.0455300        11.813100
       71.959100       -5.9890700        12.867500
       73.123000       -5.9612900        14.016000
       74.305700       -5.8679900        15.267000
       75.507600       -5.6150800        16.537500
       76.728900       -5.3479300        17.805800
       77.969900       -4.9939000        19.171300
       79.231000       -4.4749800        20.641500
       80.512500       -3.5975300        22.224500
       81.814700       -2.5619400        23.259600
       83.138000       -1.6248400        24.310800
       84.482700      -0.67559800        25.409500
       85.849100       0.42151700        26.557800
       87.237700        1.7108700        27.539400
       88.648700        2.9886500        28.451700
       90.082500        4.3503600        29.394100
       91.539500        5.9869200        30.367700
       93.020100        7.7410000        30.858300
       94.524600        9.4436600        31.322700
       96.053500        11.313600        31.794100
       97.607100        13.235100        31.819400
       99.185800        15.056000        31.794000
       100.79000        17.054700        31.768600
       102.42000        18.972800        31.086900
       104.07700        20.649100        30.415800
       105.76000        22.214000        29.759300
       107.47100        23.817500        29.116900
       109.20900        25.773800        28.488400
       110.97500        27.808700        26.817300
       112.77000        29.027000        24.868600
       114.59400        29.816900        23.061400
       116.44800        30.347000        21.385700
       118.33100        30.692000        19.831700
       120.24500        30.899000        18.390600
       122.19000        30.999500        17.054300
       124.16600        31.019400        15.815100
       126.17500        30.979600        14.665800
       128.21500        30.905700        13.600100
       130.28900        30.858100        12.569700
       132.39700        30.689000        11.490800
       134.53800        30.427800        10.504500
       136.71400        30.110700        9.6028500
       138.92500        29.758000        8.7785900
       141.17200        29.381700        8.0251100
       143.45600        28.989600        7.3362700
       145.77600        28.589400        6.7065900
       148.13400        28.187900        6.1309500
       150.53000        27.797200        5.6047000
       152.96400        27.457900        5.1236200
       155.43900        27.095400        4.5091900
       157.95300        26.620000        3.9360900
       160.50700        26.068600        3.4346800
       163.10300        25.456800        2.9958100
       165.74200        24.746400        2.7171500
       168.42200        24.135700        2.5760300
       171.14600        23.591800        2.4884500
       173.91500        23.103900        2.4294000
       176.72700        22.623700        2.3896700
       179.58600        22.191000        2.3937600
       182.49100        21.780700        2.3978600
       185.44200        21.386800        2.4433700
       188.44200        21.017600        2.5009500
       191.48900        20.668100        2.5942300
       194.58700        20.358400        2.7052100
       197.73400        20.076900        2.8209300
       200.93200        19.816900        2.9418200
       204.18200        19.576100        3.0683100
       207.48500        19.352200        3.2002300
       210.84000        19.144100        3.3378300
       214.25100        18.950800        3.4813400
       217.71600        18.772200        3.6310200
       221.23700        18.608300        3.7871400
       224.81600        18.460600        3.9499700
       228.45200        18.337500        4.1124700
       232.14700        18.219800        4.2687100
       235.90200        18.108000        4.4308800
       239.71700        18.007300        4.5992200
       243.59500        17.919000        4.7739500
       247.53500        17.845300        4.9553100
       251.53800        17.789700        5.1435700
       255.60700        17.764700        5.3389800
       259.74100        17.764000        5.4985400
       263.94200        17.756500        5.6467800
       268.21100        17.746400        5.7990200
       272.54900        17.744000        5.9553800
       276.95700        17.752800        6.1159400
       281.43700        17.777700        6.2808400
       285.98900        17.847200        6.4501700
       290.61500        17.920500        6.5556200
       295.31500        17.979400        6.6610700
       300.09200        18.046400        6.7682300
       304.94500        18.129700        6.8457200
       309.87800        18.194000        6.9016200
       314.89000        18.242300        6.9579700
       319.98300        18.286000        7.0147800
       325.15800        18.328200        7.0720600
       330.41800        18.371700        7.1298100
       335.76200        18.421900        7.1880200
       341.19200        18.500400        7.2374000
       346.71100        18.557500        7.2320100
       352.31900        18.591000        7.2266300
       358.01700        18.608700        7.2212500
       363.80800        18.615400        7.2158700
       369.69200        18.612400        7.2105000
       375.67200        18.600900        7.2051300
       381.74800        18.581600        7.1997700
       387.92200        18.555700        7.1944100
       394.19700        18.525300        7.1890500
       400.57300        18.501100        7.1815800
       407.05200        18.458400        7.1397100
       413.63500        18.392100        7.0980900
       420.32600        18.305300        7.0567100
       427.12400        18.200700        7.0155800
       434.03200        18.078200        6.9746800
       441.05200        17.937300        6.9340200
       448.18600        17.777400        6.8936000
       455.43500        17.597600        6.8534100
       462.80200        17.402600        6.8134600
       470.28700        17.187600        6.7574100
       477.89400        16.929100        6.6875200
       485.62300        16.627300        6.6183600
       493.47800        16.281100        6.5499000
       501.45900        15.885800        6.4821600
       509.57000        15.434900        6.4151300
       517.81200        14.919100        6.3483300
       526.18700        14.326000        6.2819500
       534.69800        13.639600        6.2162700
       543.34600        12.837800        6.1512800
       552.13400        11.889400        6.0869600
       561.06500        10.748400        6.0233200
       570.13900        9.3407000        5.9603400
       579.36100        7.5551200        5.9128200
       588.73200        5.1853200        5.8702300
       598.25400        1.7665100        5.8281400
       607.93000       -4.0549600        5.7863400
       617.76300       -21.913900        5.7448400
       619.90000       -56.487000        5.7359500
       620.10000       -56.428600        41.054500
       627.75500       -6.4942100        40.175300
       637.90800        3.6824900        39.054000
       648.22600        9.3087600        37.964000
       658.71100        13.197900        36.904300
       669.36500        16.090600        35.873200
       680.19100        18.350700        34.966700
       691.19300        20.237800        34.157700
       702.37200        21.861000        33.398500
       713.73300        23.274100        32.660400
       725.27700        24.507900        31.941500
       737.00800        25.585300        31.236400
       748.92800        26.522100        30.548100
       761.04200        27.322200        29.877000
       773.35100        27.994500        29.234000
       785.85900        28.544800        28.654000
       798.57000        29.021400        28.125600
       811.48600        29.420800        27.608500
       824.61100        29.710500        27.099800
       837.94900        29.680200        26.599600
       851.50200        29.511600        26.482400
       865.27400        29.273900        26.784200
       879.26900        29.373800        27.475000
       893.49100        29.877400        28.184600
       907.94300        30.616900        28.913000
       922.62800        32.042600        29.660700
       937.55100        33.531900        29.513400
       952.71500        34.796100        29.140000
       968.12400        35.822600        28.576900
       983.78300        36.619200        28.023600
       999.69500        37.305800        27.487500
       1015.8600        37.883500        26.968400
       1032.2900        38.406200        26.516900
       1048.9900        38.897800        26.092400
       1065.9600        39.372600        25.695100
       1083.2000        39.837000        25.304100
       1100.7200        40.283000        24.919100
       1118.5200        40.712100        24.539800
       1136.6100        41.125700        24.166300
       1155.0000        41.525800        23.798400
       1173.6800        41.914100        23.436000
       1192.6600        42.293400        23.079400
       1211.9500        42.666100        22.728100
       1231.5500        43.051200        22.382200
       1251.4700        43.435000        22.011200
       1271.7200        43.816400        21.613700
       1292.2900        44.159500        21.183700
       1313.1900        44.458100        20.762400
       1334.4300        44.733600        20.349400
       1356.0100        44.989700        19.944600
       1377.9400        45.228800        19.547600
       1400.2300        45.453000        19.158700
       1422.8800        45.664100        18.777600
       1445.8900        45.864600        18.404000
       1469.2800        46.055100        18.036200
       1493.0400        46.239200        17.673300
       1517.1900        46.411100        17.308000
       1541.7300        46.567300        16.948900
       1566.6700        46.712000        16.597200
       1592.0100        46.846400        16.252700
       1617.7600        46.971700        15.915400
       1643.9200        47.088800        15.585300
       1670.5100        47.198400        15.261700
       1697.5300        47.301200        14.944900
       1724.9900        47.399400        14.634800
       1752.8900        47.491300        14.325800
       1781.2400        47.575200        14.021700
       1810.0500        47.650900        13.722900
       1839.3200        47.719600        13.430100
       1869.0700        47.781600        13.143500
       1899.3000        47.837700        12.863200
       1930.0200        47.888600        12.588800
       1961.2400        47.934600        12.320400
       1992.9600        47.974500        12.057900
       2025.2000        48.014000        11.805000
       2057.9500        48.050900        11.549900
       2091.2400        48.081500        11.299400
       2125.0600        48.106800        11.053600
       2159.4300        48.127700        10.812700
       2194.3600        48.144400        10.576300
       2229.8500        48.156900        10.344000
       2265.9200        48.165000        10.116500
       2302.5700        48.169400        9.8933700
       2339.8100        48.169900        9.6743000
       2377.6600        48.166700        9.4595000
       2416.1100        48.159600        9.2486200
       2455.1900        48.148800        9.0420600
       2494.9000        48.134200        8.8391900
       2535.2600        48.116100        8.6404300
       2576.2600        48.094300        8.4452600
       2617.9300        48.068800        8.2538600
       2660.2700        48.039300        8.0660700
       2703.3000        48.006200        7.8823400
       2747.0300        47.969500        7.7017900
       2791.4600        47.928800        7.5247400
       2836.6100        47.884200        7.3511000
       2882.4900        47.835400        7.1807000
       2929.1100        47.782300        7.0136200
       2976.4800        47.724800        6.8497100
       3024.6300        47.662600        6.6890300
       3073.5500        47.595600        6.5313900
       3123.2600        47.523400        6.3767100
       3173.7800        47.445700        6.2250700
       3225.1100        47.362200        6.0763200
       3277.2700        47.272300        5.9304000
       3330.2800        47.175600        5.7872700
       3384.1500        47.071500        5.6469000
       3438.8800        46.959200        5.5092000
       3494.5000        46.837900        5.3741300
       3551.0200        46.706500        5.2416700
       3608.4600        46.563800        5.1116800
       3666.8200        46.408200        4.9841800
       3726.1300        46.237900        4.8591800
       3786.4000        46.050600        4.7364500
       3847.6400        45.843100        4.6160900
       3909.8700        45.611800        4.4981000
       3973.1100        45.351500        4.3822900
       4037.3800        45.055100        4.2686800
       4102.6800        44.712800        4.1572400
       4169.0300        44.309900        4.0478900
       4236.4600        43.823000        3.9406100
       4304.9800        43.211900        3.8354600
       4374.6200        42.396700        3.7321700
       4445.3700        41.177100        3.6308200
       4517.2700        38.703200        3.5314800
       4557.0000        24.584600        3.4784200
       4557.2000        24.586300        10.894800
       4590.3300        38.216200        10.767600
       4664.5800        40.749200        10.491200
