;  Atomic scattering factors for In.
;   
;  Concatenation of data from CXRO <http://www-cxro.lbl.gov>
;  and LLNL <http://www-phys.llnl.gov/V_Div/scattering/asf.html>
;  
;  E (eV) f1 f2
;---------------
       10.000000       -9999.0000        2.1624400
       10.161700       -9999.0000        2.0700200
       10.326100       -9999.0000        1.9815500
       10.493100       -9999.0000        1.8968600
       10.662800       -9999.0000        1.8157900
       10.835300       -9999.0000        1.7284400
       11.010600       -9999.0000        1.5498500
       11.188600       -9999.0000        1.3573100
       11.369600       -9999.0000       0.99325200
       11.553500       -9999.0000       0.74201800
       11.740400       -9999.0000       0.65818000
       11.930300       -9999.0000       0.61266700
       12.123200       -9999.0000       0.57369600
       12.319300       -9999.0000       0.53737400
       12.518600       -9999.0000       0.50977300
       12.721000       -9999.0000       0.49137300
       12.926800       -9999.0000       0.47363800
       13.135900       -9999.0000       0.45658900
       13.348300       -9999.0000       0.44037000
       13.564200       -9999.0000       0.42472800
       13.783600       -9999.0000       0.41403400
       14.006600       -9999.0000       0.40484300
       14.233100       -9999.0000       0.39611300
       14.463300       -9999.0000       0.38819800
       14.697300       -9999.0000       0.38598000
       14.935000       -9999.0000       0.38739100
       15.176500       -9999.0000       0.39615200
       15.422000       -9999.0000       0.41041900
       15.671400       -9999.0000       0.43195100
       15.924900       -9999.0000       0.45591200
       16.182500       -9999.0000       0.48965100
       16.444200       -9999.0000       0.69163400
       16.710200       -9999.0000        1.0828300
       16.980500       -9999.0000        1.4922600
       17.255100       -9999.0000        1.7842300
       17.534200       -9999.0000        1.9214400
       17.817800       -9999.0000        1.9416700
       18.106000       -9999.0000        1.9576600
       18.398900       -9999.0000        1.9660000
       18.696400       -9999.0000        1.9560500
       18.998800       -9999.0000        1.9246500
       19.306100       -9999.0000        1.9035200
       19.618400       -9999.0000        1.8855700
       19.935700       -9999.0000        1.8285300
       20.258200       -9999.0000        1.7674900
       20.585800       -9999.0000        1.7540900
       20.918800       -9999.0000        1.7410600
       21.257100       -9999.0000        1.7281200
       21.600900       -9999.0000        1.7351500
       21.950300       -9999.0000        1.7715600
       22.305300       -9999.0000        1.8087400
       22.666100       -9999.0000        1.8647100
       23.032700       -9999.0000        1.9537100
       23.405300       -9999.0000        2.0469600
       23.783800       -9999.0000        2.1446600
       24.168500       -9999.0000        2.2557900
       24.559400       -9999.0000        2.3757800
       24.956600       -9999.0000        2.5021600
       25.360300       -9999.0000        2.6352600
       25.770500       -9999.0000        2.7657600
       26.187300       -9999.0000        2.9394300
       26.610900       -9999.0000        3.1334800
       27.041300       -9999.0000        3.3403400
       27.478600       -9999.0000        3.5022300
       27.923100       -9999.0000        3.6676400
       28.374700       -9999.0000        3.8408700
       28.833700       -9999.0000        4.0666900
       29.300000       -1.5198700        4.3279200
       29.773900       -1.5470600        4.5669500
       30.255500       -1.5833400        4.7545400
       30.744900       -1.6475200        4.9498300
       31.242100       -1.7413600        5.1603600
       31.747500       -1.8333200        5.4247500
       32.260900       -1.8941900        5.7026900
       32.782700       -1.9399500        5.9948800
       33.313000       -1.9625500        6.3014500
       33.851800       -1.9431900        6.6211400
       34.399300       -1.9068700        6.8718400
       34.955700       -1.8974000        7.1320400
       35.521100       -1.8916800        7.4020900
       36.095600       -1.8841500        7.6823600
       36.679400       -1.8724200        7.9732500
       37.272700       -1.8534600        8.2751500
       37.875500       -1.8252800        8.5884800
       38.488200       -1.7847200        8.9136800
       39.110700       -1.7150600        9.2511800
       39.743200       -1.6250600        9.5711300
       40.386100       -1.5411500        9.8802000
       41.039300       -1.4572200        10.199300
       41.703100       -1.3665700        10.528600
       42.377600       -1.2648400        10.868600
       43.063000       -1.1487400        11.219600
       43.759500       -1.0143500        11.581900
       44.467300      -0.82735000        11.955900
       45.186500      -0.61762100        12.273500
       45.917400      -0.43616400        12.586300
       46.660000      -0.25028900        12.907100
       47.414700     -0.055007000        13.236100
       48.181600       0.15703700        13.573400
       48.960900       0.40846300        13.909400
       49.752800       0.66824400        14.197500
       50.557600       0.90388200        14.491500
       51.375300        1.1455600        14.791600
       52.206200        1.3951200        15.098000
       53.050600        1.6581400        15.410600
       53.908700        1.9383800        15.720700
       54.780600        2.2286100        16.027200
       55.666700        2.5284700        16.339600
       56.567000        2.8482100        16.658200
       57.482000        3.1959400        16.982900
       58.411700        3.5961300        17.314000
       59.356400        4.0711500        17.566900
       60.316500        4.5131600        17.709300
       61.292100        4.8729300        17.852800
       62.283400        5.2091700        17.997500
       63.290800        5.4778400        18.143400
       64.314500        5.7131200        18.380100
       65.354700        6.0160200        18.714600
       66.411800        6.3930300        19.055100
       67.485900        6.9602700        19.401800
       68.577500        7.5543700        19.442600
       69.686700        7.8969300        19.447100
       70.813800        8.0990000        19.466100
       71.959100        8.2515400        19.781000
       73.123000        8.5174300        20.100900
       74.305700        8.6878000        20.426100
       75.507600        8.8572700        21.018900
       76.728900        9.2738200        21.790100
       77.969900        9.8980200        22.589700
       79.231000        10.844200        23.418600
       80.512500        12.043600        24.011900
       81.814700        13.233400        24.323500
       83.138000        14.412800        24.639200
       84.482700        15.963600        24.958900
       85.849100        17.650400        24.661000
       87.237700        18.923400        24.090000
       88.648700        20.023100        23.532300
       90.082500        21.040000        22.987400
       91.539500        22.027700        22.455200
       93.020100        23.074700        21.935200
       94.524600        24.334900        21.412400
       96.053500        25.530400        20.034600
       97.607100        26.200600        18.745400
       99.185800        26.654400        17.539200
       100.79000        26.962100        16.410500
       102.42000        27.163000        15.354600
       104.07700        27.281200        14.366500
       105.76000        27.335900        13.442100
       107.47100        27.340800        12.577100
       109.20900        27.328700        11.767500
       110.97500        27.277200        10.949900
       112.77000        27.151100        10.189100
       114.59400        26.992800        9.4811500
       116.44800        26.809200        8.8224100
       118.33100        26.606300        8.2094500
       120.24500        26.390500        7.6390500
       122.19000        26.166400        7.1083000
       124.16600        25.939900        6.6144200
       126.17500        25.717800        6.1548500
       128.21500        25.512900        5.7272100
       130.28900        25.365900        5.3292900
       132.39700        25.285800        4.7905000
       134.53800        25.063900        4.1082000
       136.71400        24.639500        3.5231000
       138.92500        24.150000        3.0213200
       141.17200        23.603000        2.6355300
       143.45600        23.069300        2.3756300
       145.77600        22.578000        2.1500400
       148.13400        22.082500        1.9768100
       150.53000        21.593000        1.8658800
       152.96400        21.129000        1.8141900
       155.43900        20.700900        1.8125600
       157.95300        20.319200        1.8470200
       160.50700        19.978300        1.8880000
       163.10300        19.664000        1.9457600
       165.74200        19.378300        2.0052900
       168.42200        19.107100        2.0679200
       171.14600        18.851600        2.1472300
       173.91500        18.616900        2.2295900
       176.72700        18.396600        2.3151100
       179.58600        18.187200        2.4039100
       182.49100        17.988200        2.5024900
       185.44200        17.803500        2.6056500
       188.44200        17.630200        2.7130600
       191.48900        17.467800        2.8249000
       194.58700        17.317100        2.9413500
       197.73400        17.177100        3.0593500
       200.93200        17.044500        3.1802200
       204.18200        16.920500        3.3058700
       207.48500        16.805900        3.4364800
       210.84000        16.701900        3.5722600
       214.25100        16.610600        3.7134000
       217.71600        16.539700        3.8601200
       221.23700        16.484900        3.9818600
       224.81600        16.422900        4.1023700
       228.45200        16.362600        4.2265300
       232.14700        16.307900        4.3544500
       235.90200        16.260600        4.4862400
       239.71700        16.222400        4.6220100
       243.59500        16.209600        4.7619000
       247.53500        16.209200        4.8720000
       251.53800        16.192300        4.9795000
       255.60700        16.178500        5.0893800
       259.74100        16.169300        5.2016800
       263.94200        16.167700        5.3164500
       268.21100        16.185500        5.4337600
       272.54900        16.225700        5.5387600
       276.95700        16.264300        5.5914600
       281.43700        16.279100        5.6446500
       285.98900        16.286600        5.6983600
       290.61500        16.291400        5.7525700
       295.31500        16.297700        5.8073100
       300.09200        16.314400        5.8625600
       304.94500        16.350900        5.8887900
       309.87800        16.367600        5.8707000
       314.89000        16.345600        5.8526600
       319.98300        16.308600        5.8346700
       325.15800        16.258000        5.8167500
       330.41800        16.198600        5.7988700
       335.76200        16.129000        5.7645100
       341.19200        16.033800        5.7234000
       346.71100        15.914800        5.6825800
       352.31900        15.774800        5.6420400
       358.01700        15.613400        5.6018000
       363.80800        15.430500        5.5618400
       369.69200        15.223600        5.5151600
       375.67200        14.982700        5.4647100
       381.74800        14.703700        5.4147300
       387.92200        14.383500        5.3652000
       394.19700        14.008800        5.3161300
       400.57300        13.572700        5.2797000
       407.05200        13.083200        5.2753500
       413.63500        12.537400        5.2710100
       420.32600        11.884600        5.2666600
       427.12400        11.116900        5.3136400
       434.03200        10.273600        5.4161300
       441.05200        9.4759600        5.5205900
       443.80000        10.673400        5.5615700
       444.00000        10.563900        3.5856300
       448.18600        6.6816300        4.4925100
       455.43500        3.9607400        6.6058300
       462.80200        2.5292400        9.7132900
       470.28700        2.2102200        12.518700
       477.89400        1.9758900        15.320600
       485.62300        2.7137100        18.749800
       493.47800        4.8266000        20.857100
       501.45900        6.6705400        22.328300
       509.57000        8.3000000        23.211200
       517.81200        9.8003500        24.129100
       526.18700        11.474200        24.738600
       534.69800        12.970000        24.958300
       543.34600        14.329400        25.180000
       552.13400        15.646100        25.070400
       561.06500        16.617500        24.884500
       570.13900        17.446100        24.699900
       579.36100        18.123000        24.516700
       588.73200        18.680900        24.396600
       598.25400        19.205100        24.359500
       607.93000        19.705200        24.322300
       617.76300        20.216400        24.285300
       627.75500        20.675100        24.109400
       637.90800        20.612900        23.756200
       648.22600        20.100200        23.930200
       658.71100        19.893200        25.160100
       669.36500        20.333800        26.453200
       680.19100        21.424700        27.812800
       691.19300        23.184000        28.895200
       702.37200        25.006400        28.603300
       713.73300        26.243600        28.314300
       725.27700        27.365000        28.028200
       737.00800        28.385000        27.582800
       748.92800        29.165800        27.098200
       761.04200        29.793200        26.622200
       773.35100        30.195800        26.217900
       785.85900        30.572300        26.156300
       798.57000        31.150900        26.094900
       811.48600        31.772700        26.033700
       824.61100        32.518600        25.972500
       837.94900        33.297800        25.680300
       851.50200        33.933600        25.386400
       865.27400        34.553600        25.095700
       879.26900        35.211800        24.808400
       893.49100        35.870700        24.402500
       907.94300        36.410800        23.970500
       922.62800        36.905300        23.546000
       937.55100        37.363400        23.132200
       952.71500        37.794900        22.726600
       968.12400        38.205300        22.328900
       983.78300        38.600300        21.938200
       999.69500        38.987800        21.548500
       1015.8600        39.369900        21.159900
       1032.2900        39.734700        20.721400
       1048.9900        40.051600        20.291400
       1065.9600        40.341000        19.870200
       1083.2000        40.607900        19.457800
       1100.7200        40.855600        19.053900
       1118.5200        41.086000        18.658400
       1136.6100        41.300800        18.271200
       1155.0000        41.501400        17.891900
       1173.6800        41.688700        17.520400
       1192.6600        41.863700        17.156900
       1211.9500        42.027600        16.800800
       1231.5500        42.181000        16.452100
       1251.4700        42.324300        16.110500
       1271.7200        42.458200        15.776000
       1292.2900        42.583300        15.448600
       1313.1900        42.700200        15.128100
       1334.4300        42.809400        14.814200
       1356.0100        42.911300        14.506700
       1377.9400        43.006200        14.205600
       1400.2300        43.094500        13.910700
       1422.8800        43.176500        13.621900
       1445.8900        43.252500        13.339200
       1469.2800        43.323100        13.062300
       1493.0400        43.388300        12.791100
       1517.1900        43.448500        12.525400
       1541.7300        43.503800        12.265000
       1566.6700        43.554400        12.010000
       1592.0100        43.600600        11.760400
       1617.7600        43.642700        11.515900
       1643.9200        43.681100        11.276600
       1670.5100        43.716000        11.042100
       1697.5300        43.747700        10.812500
       1724.9900        43.778800        10.587600
       1752.8900        43.807900        10.361900
       1781.2400        43.829500        10.138900
       1810.0500        43.846000        9.9189800
       1839.3200        43.857000        9.7040200
       1869.0700        43.863800        9.4937700
       1899.3000        43.866800        9.2881300
       1930.0200        43.866200        9.0868300
       1961.2400        43.862000        8.8899000
       1992.9600        43.854100        8.6972900
       2025.2000        43.845300        8.5121600
       2057.9500        43.836400        8.3244500
       2091.2400        43.820700        8.1397800
       2125.0600        43.801000        7.9585500
       2159.4300        43.777400        7.7805000
       2194.3600        43.749700        7.6061700
       2229.8500        43.718500        7.4348400
       2265.9200        43.683100        7.2665700
       2302.5700        43.643600        7.1016800
       2339.8100        43.600100        6.9395800
       2377.6600        43.552100        6.7809300
       2416.1100        43.499800        6.6250700
       2455.1900        43.442900        6.4722300
       2494.9000        43.381200        6.3223100
       2535.2600        43.314300        6.1751900
       2576.2600        43.242000        6.0309000
       2617.9300        43.164100        5.8894300
       2660.2700        43.080000        5.7506100
       2703.3000        42.989200        5.6144700
       2747.0300        42.891300        5.4810000
       2791.4600        42.785500        5.3500700
       2836.6100        42.671000        5.2217000
       2882.4900        42.546900        5.0957800
       2929.1100        42.412100        4.9723400
       2976.4800        42.265100        4.8512400
       3024.6300        42.104300        4.7325300
       3073.5500        41.927600        4.6161500
       3123.2600        41.732300        4.5019400
       3173.7800        41.515000        4.3900200
       3225.1100        41.271200        4.2802900
       3277.2700        40.995100        4.1727000
       3330.2800        40.678100        4.0671700
       3384.1500        40.308400        3.9636900
       3438.8800        39.867600        3.8623000
       3494.5000        39.325600        3.7628200
       3551.0200        38.627400        3.6653300
       3608.4600        37.654100        3.5696800
       3666.8200        36.053900        3.4759200
       3726.1300        29.517300        3.3840200
       3730.0000        21.053200        3.3781600
       3730.2000        21.055000        10.679100
       3786.4000        35.500400        10.437800
       3847.6400        36.729000        10.185000
       3909.8700        36.453700        9.9380700
       3937.9000        30.310500        9.8301200
       3938.1000        30.316000        13.500400
       3973.1100        37.513200        13.311300
       4037.3800        39.265300        12.975200
       4102.6800        40.192300        12.647500
       4169.0300        40.703300        12.328800
       4236.4600        39.079000        12.018500
       4237.4000        37.903600        12.014300
       4237.6000        37.908900        13.839500
       4304.9800        41.982800        13.521700
       4374.6200        42.909100        13.205900
