;  Atomic scattering factors for Ir.
;   
;  Concatenation of data from CXRO <http://www-cxro.lbl.gov>
;  and LLNL <http://www-phys.llnl.gov/V_Div/scattering/asf.html>
;  
;  E (eV) f1 f2
;---------------
       10.000000       -9999.0000        2.2275300
       10.161700       -9999.0000        2.3068300
       10.326100       -9999.0000        2.3889500
       10.493100       -9999.0000        2.4740000
       10.662800       -9999.0000        2.5620700
       10.835300       -9999.0000        2.6541700
       11.010600       -9999.0000        2.7500300
       11.188600       -9999.0000        2.8493500
       11.369600       -9999.0000        2.9478100
       11.553500       -9999.0000        3.0118000
       11.740400       -9999.0000        3.0771700
       11.930300       -9999.0000        3.1439700
       12.123200       -9999.0000        3.2122100
       12.319300       -9999.0000        3.2620500
       12.518600       -9999.0000        3.3043900
       12.721000       -9999.0000        3.3472900
       12.926800       -9999.0000        3.3907400
       13.135900       -9999.0000        3.4347600
       13.348300       -9999.0000        3.4769600
       13.564200       -9999.0000        3.5196200
       13.783600       -9999.0000        3.5628100
       14.006600       -9999.0000        3.6149600
       14.233100       -9999.0000        3.7006900
       14.463300       -9999.0000        3.7884600
       14.697300       -9999.0000        3.8783100
       14.935000       -9999.0000        3.9702900
       15.176500       -9999.0000        4.0717200
       15.422000       -9999.0000        4.1956000
       15.671400       -9999.0000        4.3232500
       15.924900       -9999.0000        4.4547800
       16.182500       -9999.0000        4.6071100
       16.444200       -9999.0000        4.7733100
       16.710200       -9999.0000        4.9455000
       16.980500       -9999.0000        5.1239100
       17.255100       -9999.0000        5.3087500
       17.534200       -9999.0000        5.5060200
       17.817800       -9999.0000        5.7426900
       18.106000       -9999.0000        5.9895400
       18.398900       -9999.0000        6.2469900
       18.696400       -9999.0000        6.5155200
       18.998800       -9999.0000        6.7480000
       19.306100       -9999.0000        6.9756100
       19.618400       -9999.0000        7.2109100
       19.935700       -9999.0000        7.4541400
       20.258200       -9999.0000        7.6849600
       20.585800       -9999.0000        7.8905700
       20.918800       -9999.0000        8.1016800
       21.257100       -9999.0000        8.3184400
       21.600900       -9999.0000        8.5253400
       21.950300       -9999.0000        8.6850600
       22.305300       -9999.0000        8.8477700
       22.666100       -9999.0000        9.0135300
       23.032700       -9999.0000        9.1824000
       23.405300       -9999.0000        9.2620100
       23.783800       -9999.0000        9.3287200
       24.168500       -9999.0000        9.3959100
       24.559400       -9999.0000        9.4636000
       24.956600       -9999.0000        9.5294800
       25.360300       -9999.0000        9.5909100
       25.770500       -9999.0000        9.6527200
       26.187300       -9999.0000        9.7149400
       26.610900       -9999.0000        9.7775500
       27.041300       -9999.0000        9.7980100
       27.478600       -9999.0000        9.7597600
       27.923100       -9999.0000        9.7216500
       28.374700       -9999.0000        9.6836900
       28.833700       -9999.0000        9.6458700
       29.300000        6.7233400        9.6082100
       29.773900        6.9907200        9.5526500
       30.255500        7.2435200        9.4138500
       30.744900        7.4518000        9.2770700
       31.242100        7.6444400        9.1422800
       31.747500        7.8407700        9.0094500
       32.260900        8.0684600        8.8305700
       32.782700        8.2369200        8.5424700
       33.313000        8.3008700        8.2637600
       33.851800        8.2929500        7.9941500
       34.399300        8.2092100        7.8168200
       34.955700        8.1614000        7.6742100
       35.521100        8.1037300        7.5341900
       36.095600        8.0144600        7.3967300
       36.679400        7.8748800        7.3263700
       37.272700        7.7765500        7.3034800
       37.875500        7.6966900        7.2806700
       38.488200        7.6169700        7.2579100
       39.110700        7.5222300        7.2352400
       39.743200        7.4024200        7.2201800
       40.386100        7.2809800        7.2738400
       41.039300        7.1844200        7.3279100
       41.703100        7.0919300        7.3823800
       42.377600        6.9955000        7.4372500
       43.063000        6.8813200        7.4925300
       43.759500        6.7412700        7.5712600
       44.467300        6.6065300        7.6654300
       45.186500        6.4529500        7.7607700
       45.917400        6.2526300        7.8572900
       46.660000        5.9789300        7.9869400
       47.414700        5.4897500        8.1377500
       48.181600        4.6640100        8.8238500
       48.960900        4.5553400        10.072200
       49.752800        5.1508900        11.547100
       50.557600        6.1317900        11.638400
       51.375300        6.6639700        11.730400
       52.206200        7.0590400        11.823200
       53.050600        7.3875900        11.916700
       53.908700        7.6754100        12.010900
       54.780600        7.9345800        12.105900
       55.666700        8.1706100        12.201600
       56.567000        8.3844900        12.298000
       57.482000        8.5716000        12.395300
       58.411700        8.7129500        12.493300
       59.356400        8.7501900        12.656400
       60.316500        8.8478900        13.020500
       61.292100        9.0312600        13.395000
       62.283400        9.2340500        13.820800
       63.290800        9.5853800        14.414600
       64.314500        10.168500        15.034000
       65.354700        11.086000        15.453700
       66.411800        11.954100        15.697700
       67.485900        13.030900        15.890400
       68.577500        14.067300        15.522400
       69.686700        14.927800        15.162800
       70.813800        15.842600        14.626400
       71.959100        16.436000        13.896800
       73.123000        16.834300        13.203600
       74.305700        17.109600        12.545000
       75.507600        17.294800        11.946700
       76.728900        17.422000        11.380000
       77.969900        17.491800        10.840200
       79.231000        17.503900        10.325900
       80.512500        17.450900        9.8361100
       81.814700        17.293900        9.3883100
       83.138000        17.143200        9.1333500
       84.482700        17.046200        8.8853200
       85.849100        16.967300        8.6440400
       87.237700        16.888600        8.4092900
       88.648700        16.804200        8.1809200
       90.082500        16.706000        7.9587500
       91.539500        16.577200        7.7426300
       93.020100        16.445600        7.5976200
       94.524600        16.338600        7.4595700
       96.053500        16.238900        7.3240200
       97.607100        16.140700        7.1909300
       99.185800        16.041000        7.0602600
       100.79000        15.938200        6.9319700
       102.42000        15.833200        6.8044600
       104.07700        15.716500        6.6695100
       105.76000        15.584200        6.5372400
       107.47100        15.434600        6.4075800
       109.20900        15.260300        6.2805100
       110.97500        15.036600        6.1848600
       112.77000        14.831600        6.1275500
       114.59400        14.629500        6.0707600
       116.44800        14.406100        6.0145100
       118.33100        14.109300        5.9974000
       120.24500        13.857300        6.0580900
       122.19000        13.635800        6.1193900
       124.16600        13.414200        6.1813000
       126.17500        13.165100        6.2438500
       128.21500        12.904100        6.3794800
       130.28900        12.685100        6.5441200
       132.39700        12.487800        6.7130100
       134.53800        12.301800        6.8862600
       136.71400        12.121600        7.0639800
       138.92500        11.939900        7.2462900
       141.17200        11.734500        7.4504300
       143.45600        11.558200        7.7021000
       145.77600        11.405000        7.9622700
       148.13400        11.267900        8.2312300
       150.53000        11.144900        8.5092700
       152.96400        11.037600        8.7957100
       155.43900        10.941200        9.0873300
       157.95300        10.855400        9.3886200
       160.50700        10.782700        9.6999000
       163.10300        10.724800        10.021500
       165.74200        10.685600        10.353800
       168.42200        10.697800        10.688700
       171.14600        10.703500        10.970700
       173.91500        10.690000        11.260200
       176.72700        10.672600        11.557300
       179.58600        10.652000        11.862200
       182.49100        10.622100        12.175200
       185.44200        10.581200        12.530000
       188.44200        10.569900        12.919300
       191.48900        10.594700        13.320800
       194.58700        10.655900        13.719900
       197.73400        10.718900        14.102500
       200.93200        10.787400        14.495700
       204.18200        10.867400        14.899900
       207.48500        10.962800        15.315400
       210.84000        11.076600        15.742500
       214.25100        11.212900        16.181500
       217.71600        11.390400        16.632800
       221.23700        11.607500        17.058200
       224.81600        11.819200        17.458100
       228.45200        12.035400        17.867400
       232.14700        12.267100        18.286300
       235.90200        12.522600        18.715000
       239.71700        12.811100        19.153800
       243.59500        13.147200        19.602900
       247.53500        13.629300        19.996200
       251.53800        14.063200        20.229900
       255.60700        14.412400        20.466400
       259.74100        14.745300        20.705700
       263.94200        15.068300        20.947700
       268.21100        15.387100        21.192500
       272.54900        15.712000        21.437100
       276.95700        16.033800        21.673200
       281.43700        16.352200        21.911800
       285.98900        16.678000        22.153000
       290.61500        17.021200        22.377600
       295.31500        17.351100        22.576600
       300.09200        17.660300        22.777400
       304.94500        17.960600        22.980000
       309.87800        18.249600        23.184400
       314.89000        18.508700        23.390600
       319.98300        18.773100        23.665400
       325.15800        19.066400        23.950900
       330.41800        19.383700        24.240000
       335.76200        19.718500        24.532500
       341.19200        20.071300        24.828500
       346.71100        20.444700        25.128100
       352.31900        20.844100        25.431300
       358.01700        21.294600        25.738200
       363.80800        21.769100        25.967100
       369.69200        22.223000        26.169500
       375.67200        22.657800        26.373500
       381.74800        23.092900        26.579000
       387.92200        23.532100        26.786200
       394.19700        23.978900        26.995000
       400.57300        24.436700        27.205300
       407.05200        24.910200        27.417400
       413.63500        25.406700        27.631100
       420.32600        25.949000        27.846400
       427.12400        26.544800        27.986100
       434.03200        27.110500        28.044900
       441.05200        27.619300        28.103800
       448.18600        28.115500        28.162800
       455.43500        28.602500        28.221900
       462.80200        29.083800        28.281100
       470.28700        29.562200        28.340500
       477.89400        30.039700        28.400000
       485.62300        30.518300        28.459600
       493.47800        30.999600        28.519300
       501.45900        31.485500        28.579200
       509.57000        31.978200        28.639200
       517.81200        32.480100        28.699400
       526.18700        32.994700        28.759600
       534.69800        33.526700        28.820000
       543.34600        34.082700        28.880500
       552.13400        34.704200        28.941100
       561.06500        35.398300        28.945700
       570.13900        36.069200        28.750700
       579.36100        36.636500        28.557000
       588.73200        37.161300        28.364500
       598.25400        37.657400        28.173400
       607.93000        38.131400        27.983500
       617.76300        38.587600        27.795000
       627.75500        39.028600        27.607700
       637.90800        39.456800        27.421700
       648.22600        39.873700        27.236900
       658.71100        40.280700        27.053400
       669.36500        40.679100        26.871100
       680.19100        41.069600        26.690000
       691.19300        41.453400        26.510100
       702.37200        41.831300        26.331500
       713.73300        42.204100        26.154100
       725.27700        42.572700        25.977800
       737.00800        42.938000        25.802800
       748.92800        43.301000        25.628900
       761.04200        43.662700        25.456200
       773.35100        44.024500        25.284700
       785.85900        44.388100        25.114300
       798.57000        44.755500        24.945100
       811.48600        45.130000        24.777000
       824.61100        45.516200        24.610000
       837.94900        45.921700        24.444200
       851.50200        46.352500        24.279500
       865.27400        47.037400        24.115900
       879.26900        47.729900        23.176000
       893.49100        47.650200        22.891700
       907.94300        47.837700        22.610400
       922.62800        48.069900        22.332300
       937.55100        48.314500        22.030700
       952.71500        48.545200        21.726100
       968.12400        48.764100        21.419500
       983.78300        48.972600        21.116800
       999.69500        49.174400        20.815600
       1015.8600        49.372500        20.515800
       1032.2900        49.561700        20.195900
       1048.9900        49.726900        19.877500
       1065.9600        49.875000        19.560500
       1083.2000        50.007400        19.248200
       1100.7200        50.126100        18.940400
       1118.5200        50.231800        18.637200
       1136.6100        50.325400        18.338800
       1155.0000        50.407700        18.044800
       1173.6800        50.478500        17.755000
       1192.6600        50.538400        17.469700
       1211.9500        50.588000        17.188600
       1231.5500        50.628300        16.911500
       1251.4700        50.659300        16.634500
       1271.7200        50.679300        16.357200
       1292.2900        50.682600        16.078600
       1313.1900        50.669200        15.804100
       1334.4300        50.640500        15.534100
       1356.0100        50.596800        15.268500
       1377.9400        50.537900        15.007000
       1400.2300        50.463200        14.749700
       1422.8800        50.372100        14.496700
       1445.8900        50.264400        14.247600
       1469.2800        50.139200        14.001600
       1493.0400        49.994800        13.758400
       1517.1900        49.828800        13.514200
       1541.7300        49.635400        13.273700
       1566.6700        49.414800        13.037500
       1592.0100        49.164700        12.804600
       1617.7600        48.881500        12.575700
       1643.9200        48.561400        12.350800
       1670.5100        48.199700        12.130000
       1697.5300        47.791000        11.912700
       1724.9900        47.327500        11.698600
       1752.8900        46.798200        11.480700
       1781.2400        46.182600        11.264200
       1810.0500        45.461700        11.049500
       1839.3200        44.608200        10.838400
       1869.0700        43.580900        10.631400
       1899.3000        42.315200        10.428600
       1930.0200        40.697700        10.229300
       1961.2400        38.503400        10.033600
       1992.9600        35.166500        9.8413400
       2025.2000        28.096400        9.6578400
       2040.3000      -0.66199900        9.5740300
       2040.5000      -0.66212100        27.330400
       2057.9500        27.920400        27.033200
       2091.2400        31.192600        26.482100
       2116.0000        12.321800        26.084900
       2116.2000        12.353100        38.446800
       2125.0600        30.742800        38.218300
       2159.4300        39.334900        37.353900
       2194.3600        43.421600        36.509300
       2229.8500        46.266900        35.683600
       2265.9200        48.451200        34.877400
       2302.5700        50.199800        34.088700
       2339.8100        51.623600        33.319500
       2377.6600        52.780600        32.567600
       2416.1100        53.690300        31.832600
       2455.1900        54.329400        31.115400
       2494.9000        54.572700        30.414800
       2535.2600        53.617700        29.730200
       2550.6000        46.371500        29.476800
       2550.8000        46.377600        34.227200
       2576.2600        55.343600        33.719800
       2617.9300        57.595800        32.915800
       2660.2700        59.008700        32.130900
       2703.3000        60.085400        31.367100
       2747.0300        60.947300        30.621700
       2791.4600        61.630200        29.894900
       2836.6100        62.118800        29.186100
       2882.4900        62.228000        28.495000
       2908.6000        59.436900        28.113800
       2908.8000        59.439600        29.886000
       2929.1100        62.699400        29.589600
       2976.4800        63.914400        28.917100
       3024.6300        64.681400        28.260900
       3073.5500        65.262100        27.621000
       3123.2600        65.662800        26.995800
       3173.6000        64.290900        26.386900
       3173.8000        64.292800        27.350200
       3225.1100        66.704000        26.773100
       3277.2700        67.382500        26.204800
       3330.2800        67.941400        25.644600
       3384.1500        68.434600        25.092700
       3438.8800        68.879700        24.548900
       3494.5000        69.286700        24.013900
       3551.0200        69.660400        23.486000
       3608.4600        70.005800        22.968100
       3666.8200        70.326000        22.457900
       3726.1300        70.622300        21.957200
       3786.4000        70.896700        21.463400
       3847.6400        71.151000        20.979500
       3909.8700        71.387200        20.504600
       3973.1100        71.606600        20.038200
       4037.3800        71.808800        19.579300
       4102.6800        71.996900        19.130800
       4169.0300        72.171100        18.689200
       4236.4600        72.331000        18.256200
       4304.9800        72.478100        17.831600
