;  Atomic scattering factors for Kr.
;   
;  Concatenation of data from CXRO <http://www-cxro.lbl.gov>
;  and LLNL <http://www-phys.llnl.gov/V_Div/scattering/asf.html>
;  
;  E (eV) f1 f2
;---------------
       10.000000       -9999.0000    1.9915300e-15
       10.161700       -9999.0000    2.0237400e-15
       10.326100       -9999.0000    2.0564700e-15
       10.493100       -9999.0000    2.0897400e-15
       10.662800       -9999.0000    2.1235400e-15
       10.835300       -9999.0000    2.1578800e-15
       11.010600       -9999.0000    2.1927800e-15
       11.188600       -9999.0000    2.2282500e-15
       11.369600       -9999.0000    2.2642900e-15
       11.553500       -9999.0000    2.3009100e-15
       11.740400       -9999.0000    2.3381300e-15
       11.930300       -9999.0000    2.3759500e-15
       12.123200       -9999.0000    2.4143800e-15
       12.319300       -9999.0000    2.4534300e-15
       12.518600       -9999.0000    2.4931100e-15
       12.721000       -9999.0000    2.5334300e-15
       12.926800       -9999.0000    2.5744100e-15
       13.135900       -9999.0000    2.6160500e-15
       13.348300       -9999.0000    2.6583600e-15
       13.564200       -9999.0000    2.7013600e-15
       13.783600       -9999.0000    2.7450500e-15
       14.000000       -9999.0000    2.7881400e-15
       14.200000       -9999.0000        6.4038500
       14.233100       -9999.0000        6.4696700
       14.463300       -9999.0000        6.9418200
       14.697300       -9999.0000        7.4484400
       14.935000       -9999.0000        7.8939600
       15.176500       -9999.0000        8.3495200
       15.422000       -9999.0000        8.7984500
       15.671400       -9999.0000        9.1039800
       15.924900       -9999.0000        9.4201200
       16.182500       -9999.0000        9.7472500
       16.444200       -9999.0000        10.025400
       16.710200       -9999.0000        10.201200
       16.980500       -9999.0000        10.380100
       17.255100       -9999.0000        10.562100
       17.534200       -9999.0000        10.620600
       17.817800       -9999.0000        10.632700
       18.106000       -9999.0000        10.644800
       18.398900       -9999.0000        10.662400
       18.696400       -9999.0000        10.707300
       18.998800       -9999.0000        10.752500
       19.306100       -9999.0000        10.797900
       19.618400       -9999.0000        10.839800
       19.935700       -9999.0000        10.869100
       20.258200       -9999.0000        10.898400
       20.585800       -9999.0000        10.927700
       20.918800       -9999.0000        10.949600
       21.257100       -9999.0000        10.946700
       21.600900       -9999.0000        10.943900
       21.950300       -9999.0000        10.941000
       22.305300       -9999.0000        10.938200
       22.666100       -9999.0000        10.904900
       23.032700       -9999.0000        10.814900
       23.405300       -9999.0000        10.725700
       23.783800       -9999.0000        10.637200
       24.168500       -9999.0000        10.542000
       24.559400       -9999.0000        10.302400
       24.956600       -9999.0000        10.068300
       25.360300       -9999.0000        9.8394300
       25.770500       -9999.0000        9.6158100
       26.187300       -9999.0000        9.3972600
       26.610900       -9999.0000        9.1836800
       27.041300       -9999.0000        8.9749600
       27.478600       -9999.0000        8.7654200
       27.923100       -9999.0000        8.5392400
       28.374700       -9999.0000        8.3189100
       28.833700       -9999.0000        8.1042500
       29.300000        10.839400        7.7819600
       29.773900        11.026200        7.4178400
       30.255500        11.158800        7.0707400
       30.744900        11.257800        6.7399000
       31.242100        11.331700        6.4245300
       31.747500        11.386300        6.1239200
       32.260900        11.425500        5.8373700
       32.782700        11.452900        5.5642400
       33.313000        11.471400        5.3038900
       33.851800        11.488500        5.0557100
       34.399300        11.515200        4.8120900
       34.955700        11.521000        4.5337800
       35.521100        11.495100        4.2715600
       36.095600        11.452800        4.0245100
       36.679400        11.398600        3.7917400
       37.272700        11.335400        3.5724400
       37.875500        11.264900        3.3658300
       38.488200        11.188700        3.1711600
       39.110700        11.107800        2.9877500
       39.743200        11.023400        2.8149500
       40.386100        10.936200        2.6521400
       41.039300        10.847400        2.4987500
       41.703100        10.759700        2.3542300
       42.377600        10.668900        2.2094600
       43.063000        10.572100        2.0733800
       43.759500        10.472100        1.9456900
       44.467300        10.370000        1.8258500
       45.186500        10.266200        1.7134000
       45.917400        10.161100        1.6078700
       46.660000        10.055000        1.5088400
       47.414700        9.9478500        1.4159200
       48.181600        9.8397500        1.3287100
       48.960900        9.7307100        1.2468800
       49.752800        9.6178600        1.1700800
       50.557600        9.5045400        1.1036800
       51.375300        9.3948800        1.0426800
       52.206200        9.2861700       0.98505600
       53.050600        9.1775400       0.93061500
       53.908700        9.0683000       0.87918200
       54.780600        8.9577600       0.83059300
       55.666700        8.8447500       0.78468700
       56.567000        8.7250200       0.74451200
       57.482000        8.6068000       0.71739500
       58.411700        8.4951100       0.69126700
       59.356400        8.3832700       0.66609100
       60.316500        8.2662100       0.64183100
       61.292100        8.1468400       0.62653600
       62.283400        8.0320600       0.61752400
       63.290800        7.9194600       0.60864100
       64.314500        7.8063200       0.59988500
       65.354700        7.6907200       0.59154000
       66.411800        7.5732500       0.58650600
       67.485900        7.4543000       0.58151500
       68.577500        7.3295200       0.57656600
       69.686700        7.2008300       0.57680900
       70.813800        7.0704700       0.57770200
       71.959100        6.9345400       0.57859600
       73.123000        6.7919100       0.58137300
       74.305700        6.6422600       0.58502200
       75.507600        6.4835200       0.58869400
       76.728900        6.3120700       0.59239000
       77.969900        6.1248600       0.59911300
       79.231000        5.9209800       0.60853800
       80.512500        5.6941700       0.61811100
       81.814700        5.4365900       0.63112500
       83.138000        5.1399100       0.64767800
       84.482700        4.7851200       0.66466500
       85.849100        4.3365600       0.68209700
       87.237700        3.7283300       0.70090100
       88.648700        2.7046900       0.72630700
       90.082500       0.28970500       0.92152100
       91.539500      -0.95757900        5.9665800
       93.020100        1.0581800        10.518700
       93.700000        8.5486500        13.605700
       93.900000        9.2865300        7.2326400
       94.524600        7.5569800        6.7154900
       96.053500        7.6477000        5.6118500
       97.607100        7.7976600        4.6895500
       99.185800        7.8621100        3.9188600
       100.79000        7.4594700        2.9089800
       102.42000        6.7934000        2.6298800
       104.07700        6.3900700        2.3775500
       105.76000        5.8244700        2.1494300
       107.47100        5.2176600        2.2902900
       109.20900        4.7743500        2.5072000
       110.97500        4.4172400        2.7446400
       112.77000        4.1006000        3.0045800
       114.59400        3.8145800        3.2891400
       116.44800        3.5572400        3.6006400
       118.33100        3.3385600        3.9416400
       120.24500        3.1529400        4.2898200
       122.19000        2.9823700        4.6540100
       124.16600        2.8366600        5.0491200
       126.17500        2.7662600        5.4777800
       128.21500        2.7391900        5.8518500
       130.28900        2.6910500        6.2178600
       132.39700        2.6529100        6.6067600
       134.53800        2.6384900        7.0199900
       136.71400        2.6706700        7.4590600
       138.92500        2.7884000        7.8730900
       141.17200        2.9098200        8.1967800
       143.45600        2.9810800        8.5337900
       145.77600        3.0602300        8.8846400
       148.13400        3.1510100        9.2499200
       150.53000        3.2606800        9.6302300
       152.96400        3.4377600        10.026200
       155.43900        3.6421200        10.345700
       157.95300        3.8071100        10.654900
       160.50700        3.9734200        10.973400
       163.10300        4.1486400        11.301400
       165.74200        4.3395200        11.639200
       168.42200        4.5917100        11.987100
       171.14600        4.8686900        12.258400
       173.91500        5.1026800        12.506300
       176.72700        5.3262600        12.759300
       179.58600        5.5476700        13.017300
       182.49100        5.7721400        13.280600
       185.44200        6.0036600        13.549100
       188.44200        6.2492100        13.823100
       191.48900        6.5121700        14.086200
       194.58700        6.7774400        14.338800
       197.73400        7.0423200        14.595900
       200.93200        7.3183400        14.857700
       204.18200        7.6103100        15.124100
       207.48500        7.9327900        15.395300
       210.84000        8.2844700        15.622900
       214.25100        8.6242300        15.825900
       217.71600        8.9515700        16.031500
       221.23700        9.2846300        16.239700
       224.81600        9.6271600        16.450700
       228.45200        9.9837000        16.664400
       232.14700        10.376700        16.880900
       235.90200        10.798800        17.063400
       239.71700        11.212400        17.202700
       243.59500        11.617000        17.343100
       247.53500        12.029700        17.484800
       251.53800        12.459000        17.627500
       255.60700        12.956300        17.771400
       259.74100        13.501800        17.828900
       263.94200        13.995900        17.765500
       268.21100        14.423600        17.702300
       272.54900        14.820700        17.639400
       276.95700        15.196800        17.576600
       281.43700        15.556900        17.514100
       285.98900        15.904200        17.451800
       290.61500        16.241000        17.389800
       295.31500        16.568900        17.327900
       300.09200        16.889300        17.266300
       304.94500        17.203200        17.204900
       309.87800        17.511700        17.143700
       314.89000        17.815500        17.082700
       319.98300        18.115300        17.022000
       325.15800        18.412000        16.961400
       330.41800        18.706100        16.901100
       335.76200        18.998400        16.841000
       341.19200        19.289500        16.781100
       346.71100        19.580200        16.721400
       352.31900        19.871300        16.661900
       358.01700        20.163800        16.602700
       363.80800        20.458900        16.543600
       369.69200        20.758200        16.484800
       375.67200        21.063800        16.426100
       381.74800        21.379300        16.367700
       387.92200        21.711200        16.309500
       394.19700        22.081500        16.251500
       400.57300        22.495000        16.109600
       407.05200        22.862100        15.894500
       413.63500        23.164500        15.682200
       420.32600        23.445600        15.472800
       427.12400        23.708100        15.266100
       434.03200        23.955900        15.062300
       441.05200        24.191200        14.861100
       448.18600        24.415800        14.662600
       455.43500        24.631200        14.466800
       462.80200        24.838400        14.273600
       470.28700        25.038500        14.083000
       477.89400        25.232400        13.894900
       485.62300        25.420800        13.709300
       493.47800        25.604800        13.526300
       501.45900        25.785300        13.345600
       509.57000        25.963900        13.167400
       517.81200        26.142800        12.991600
       526.18700        26.328000        12.818000
       534.69800        26.527500        12.626100
       543.34600        26.711200        12.401200
       552.13400        26.862800        12.180200
       561.06500        27.002700        11.963200
       570.13900        27.131900        11.750000
       579.36100        27.252100        11.540700
       588.73200        27.364400        11.335100
       598.25400        27.469500        11.133100
       607.93000        27.568100        10.934800
       617.76300        27.660600        10.739900
       627.75500        27.747600        10.548600
       637.90800        27.829200        10.360600
       648.22600        27.905900        10.176000
       658.71100        27.977800        9.9947300
       669.36500        28.044800        9.8166500
       680.19100        28.105900        9.6417400
       691.19300        28.162600        9.4757500
       702.37200        28.219800        9.3136700
       713.73300        28.276000        9.1543700
       725.27700        28.330800        8.9977800
       737.00800        28.384500        8.8438800
       748.92800        28.437900        8.6926000
       761.04200        28.492000        8.5439200
       773.35100        28.550800        8.3977800
       785.85900        28.614200        8.2391300
       798.57000        28.668000        8.0741000
       811.48600        28.713600        7.9123700
       824.61100        28.757500        7.7538900
       837.94900        28.823100        7.5985700
       851.50200        28.885700        7.3893400
       865.27400        28.897400        7.1825900
       879.26900        28.892900        6.9816400
       893.49100        28.858000        6.7863000
       907.94300        28.808800        6.6297500
       922.62800        28.777400        6.4827400
       937.55100        28.744100        6.3389800
       952.71500        28.708400        6.1984200
       968.12400        28.668600        6.0609700
       983.78300        28.623700        5.9297600
       999.69500        28.577400        5.8052800
       1015.8600        28.531300        5.6833100
       1032.2900        28.482700        5.5628200
       1048.9900        28.430800        5.4435000
       1065.9600        28.374100        5.3252500
       1083.2000        28.311700        5.2096300
       1100.7200        28.244400        5.0965200
       1118.5200        28.171900        4.9858800
       1136.6100        28.093700        4.8775000
       1155.0000        28.009400        4.7715000
       1173.6800        27.918700        4.6678500
       1192.6600        27.821100        4.5665600
       1211.9500        27.716100        4.4674000
       1231.5500        27.603200        4.3702900
       1251.4700        27.481500        4.2745000
       1271.7200        27.349300        4.1797600
       1292.2900        27.204800        4.0858300
       1313.1900        27.046000        3.9942000
       1334.4300        26.871900        3.9046000
       1356.0100        26.680200        3.8169300
       1377.9400        26.468300        3.7311600
       1400.2300        26.232500        3.6473400
       1422.8800        25.968500        3.5654900
       1445.8900        25.670500        3.4853400
       1469.2800        25.330200        3.4065000
       1493.0400        24.937200        3.3287400
       1517.1900        24.473100        3.2492800
       1541.7300        23.909500        3.1712900
       1566.6700        23.206800        3.0952400
       1592.0100        22.288600        3.0209700
       1617.7600        20.993100        2.9484700
       1643.9200        18.864800        2.8777300
       1670.5100        13.082300        2.8086900
       1678.3000       -4.6358400        2.7889800
       1678.5000       -4.6291900        15.613600
       1697.5300        17.027000        15.388300
       1724.9900        20.832100        15.073200
       1752.8900        22.853200        14.764600
       1781.2400        24.225000        14.462300
       1810.0500        25.239600        14.166400
       1839.3200        26.006400        13.876200
       1869.0700        26.551100        13.592000
       1899.3000        26.780200        13.313900
       1920.9000        24.288200        13.121300
       1921.1000        24.298500        14.915500
       1930.0200        26.913800        14.824400
       1961.2400        28.325400        14.513100
       1992.9600        29.155400        14.208300
       2025.2000        29.818000        13.916000
       2057.9500        30.391800        13.617400
       2091.2400        30.893400        13.321800
       2125.0600        31.341500        13.029500
       2159.4300        31.746400        12.741100
       2194.3600        32.115000        12.455900
       2229.8500        32.452000        12.174800
       2265.9200        32.761500        11.897600
       2302.5700        33.046500        11.624700
       2339.8100        33.309700        11.355800
       2377.6600        33.552900        11.091200
       2416.1100        33.778100        10.830700
       2455.1900        33.986600        10.574700
       2494.9000        34.180100        10.323000
       2535.2600        34.359300        10.075600
       2576.2600        34.525500        9.8328200
       2617.9300        34.679700        9.5946000
       2660.2700        34.823000        9.3607200
       2703.3000        34.955500        9.1309200
       2747.0300        35.078000        8.9059300
       2791.4600        35.191600        8.6854600
       2836.6100        35.296800        8.4695200
       2882.4900        35.394100        8.2572800
       2929.1100        35.483300        8.0499500
       2976.4800        35.565700        7.8469000
       3024.6300        35.641600        7.6480100
       3073.5500        35.711200        7.4534800
       3123.2600        35.774900        7.2628100
       3173.7800        35.832900        7.0765400
       3225.1100        35.885600        6.8943500
       3277.2700        35.933500        6.7168100
       3330.2800        35.977100        6.5424800
       3384.1500        36.016100        6.3723900
       3438.8800        36.051100        6.2061900
       3494.5000        36.082200        6.0438600
       3551.0200        36.109600        5.8852600
       3608.4600        36.133600        5.7303800
       3666.8200        36.154400        5.5791600
       3726.1300        36.172200        5.4316000
       3786.4000        36.187100        5.2875200
       3847.6400        36.199300        5.1469000
       3909.8700        36.209000        5.0097400
       3973.1100        36.216300        4.8758800
       4037.3800        36.221400        4.7453800
       4102.6800        36.224300        4.6180500
       4169.0300        36.225300        4.4938400
       4236.4600        36.224400        4.3727700
       4304.9800        36.221800        4.2548000
       4374.6200        36.217500        4.1397200
       4445.3700        36.211700        4.0275600
