;  Atomic scattering factors for La.
;   
;  Concatenation of data from CXRO <http://www-cxro.lbl.gov>
;  and LLNL <http://www-phys.llnl.gov/V_Div/scattering/asf.html>
;  
;  E (eV) f1 f2
;---------------
10.0000	-9999.	3.31251	
10.1152	-9999.	3.28769	
10.2317	-9999.	3.26306	
10.3496	-9999.	3.23861	
10.4688	-9999.	3.20975	
10.5894	-9999.	3.15961	
10.7114	-9999.	3.11024	
10.8348	-9999.	3.06165	
10.9596	-9999.	3.01382	
11.0859	-9999.	2.96673	
11.2136	-9999.	2.92038	
11.3428	-9999.	2.87476	
11.4734	-9999.	2.82984	
11.6056	-9999.	2.78563	
11.7393	-9999.	2.74211	
11.8745	-9999.	2.69927	
12.0113	-9999.	2.65710	
12.1497	-9999.	2.61559	
12.2897	-9999.	2.57473	
12.4312	-9999.	2.53450	
12.5744	-9999.	2.49468	
12.7193	-9999.	2.45473	
12.8658	-9999.	2.41543	
13.0140	-9999.	2.37675	
13.1640	-9999.	2.33870	
13.3156	-9999.	2.30125	
13.4690	-9999.	2.26440	
13.6242	-9999.	2.22815	
13.7811	-9999.	2.19247	
13.9399	-9999.	2.15736	
14.1005	-9999.	2.12423	
14.2629	-9999.	2.09175	
14.4272	-9999.	2.05976	
14.5934	-9999.	2.02827	
14.7615	-9999.	1.99726	
14.9316	-9999.	1.96672	
15.1036	-9999.	1.93866	
15.2776	-9999.	1.91242	
15.4536	-9999.	1.88655	
15.6316	-9999.	1.86102	
15.8117	-9999.	1.89160	
15.9938	-9999.	1.93675	
16.1781	-9999.	2.05735	
16.3644	-9999.	2.46207	
16.5529	-9999.	3.03749	
16.7436	-9999.	3.71287	
16.9365	-9999.	4.15148	
17.1316	-9999.	4.64191	
17.3290	-9999.	5.13971	
17.5286	-9999.	5.64097	
17.7305	-9999.	6.19112	
17.9348	-9999.	6.65981	
18.1414	-9999.	7.04893	
18.3504	-9999.	7.42772	
18.5618	-9999.	7.57896	
18.7756	-9999.	7.73329	
18.9919	-9999.	7.89076	
19.2107	-1.79121	8.24573	
19.4320	-1.82933	8.68806	
19.6558	-1.78838	9.15412	
19.8823	-1.69795	9.64519	
20.1113	-1.49715	10.1626	
20.3430	-1.23425	10.5908	
20.5773	-0.976246	11.0202	
20.8144	-0.616646	11.4670	
21.0542	-0.130074	11.7186	
21.2967	0.248020	11.7619	
21.5421	0.431907	11.8053	
21.7902	0.529037	11.8489	
22.0412	0.279724	11.8926	
22.2952	-0.506484E-01	12.4793	
22.5520	-0.195470E-01	13.2697	
22.8118	0.221580	14.1102	
23.0746	0.800529	14.9259	
23.3404	1.47325	15.3899	
23.6093	2.01294	15.8683	
23.8812	2.63332	16.3616	
24.1564	3.42045	16.7957	
24.4346	4.21534	16.9891	
24.7161	4.88506	17.1849	
25.0008	5.56798	17.3828	
25.2889	6.27745	17.5831	
25.5802	7.03911	17.7856	
25.8749	7.90654	17.9905	
26.1729	9.01263	18.1907	
26.4744	10.1694	17.7873	
26.7794	11.0831	17.3928	
27.0879	12.0748	16.9264	
27.4000	12.9204	16.0693	
27.7156	13.3860	15.2556	
28.0349	13.7129	14.4831	
28.3579	13.8314	13.7682	
28.6845	13.8898	13.3122	
29.0150	14.0493	12.8713	
29.3492	14.1877	12.4450	
29.6873	14.3097	12.0329	
30.0293	14.4124	11.6343	
30.3753	14.4938	11.2490	
30.7252	14.5494	10.8765	
31.0791	14.5654	10.5330	
31.4372	14.5784	10.2506	
31.7993	14.6175	9.97590	
32.1656	14.6541	9.70852	
32.5362	14.6882	9.44831	
32.9110	14.7188	9.19507	
33.2901	14.7455	8.94862	
33.6736	14.7683	8.70878	
34.0616	14.7916	8.47487	
34.4539	14.8092	8.23565	
34.8508	14.8130	8.00317	
35.2523	14.8095	7.77725	
35.6584	14.7986	7.55772	
36.0692	14.7798	7.34438	
36.4847	14.7522	7.13706	
36.9050	14.7103	6.93560	
37.3302	14.6525	6.76188	
37.7602	14.6043	6.61628	
38.1952	14.5741	6.47380	
38.6352	14.5479	6.33440	
39.0803	14.5253	6.19801	
39.5305	14.5057	6.06455	
39.9859	14.4892	5.93396	
40.4465	14.4763	5.80619	
40.9124	14.4682	5.68116	
41.3837	14.4662	5.55883	
41.8605	14.4943	5.43913	
42.3427	14.5347	5.27407	
42.8305	14.5377	5.07588	
43.3239	14.5136	4.88514	
43.8230	14.4747	4.70156	
44.3278	14.4253	4.52489	
44.8385	14.3682	4.35485	
45.3550	14.3070	4.19120	
45.8775	14.2405	4.02526	
46.4060	14.1639	3.86483	
46.9406	14.0810	3.71079	
47.4813	13.9939	3.56290	
48.0283	13.9112	3.42090	
48.5816	13.8285	3.26896	
49.1413	13.7271	3.10442	
49.7074	13.6068	2.94815	
50.2800	13.4735	2.79976	
50.8592	13.3284	2.65884	
51.4451	13.1552	2.52500	
52.0377	12.9707	2.43539	
52.6372	12.8110	2.36619	
53.2436	12.6598	2.29896	
53.8570	12.5120	2.23364	
54.4774	12.3646	2.17017	
55.1050	12.2146	2.10851	
55.7398	12.0575	2.04898	
56.3819	11.8993	2.01241	
57.0314	11.7508	1.97649	
57.6884	11.6047	1.94122	
58.3530	11.4587	1.90657	
59.0252	11.3111	1.87255	
59.7051	11.1604	1.83913	
60.3929	10.9981	1.80750	
61.0887	10.8343	1.79808	
61.7924	10.6834	1.78871	
62.5042	10.5331	1.77938	
63.2243	10.3830	1.77011	
63.9526	10.2321	1.76088	
64.6893	10.0795	1.75170	
65.4346	9.92440	1.74257	
66.1884	9.76607	1.73422	
66.9508	9.60479	1.72671	
67.7221	9.44027	1.71923	
68.5023	9.27146	1.71178	
69.2914	9.09773	1.70437	
70.0896	8.91835	1.69698	
70.8971	8.73255	1.68963	
71.7138	8.53933	1.68231	
72.5399	8.33733	1.67503	
73.3756	8.12352	1.66777	
74.2209	7.89592	1.66951	
75.0759	7.66401	1.68076	
75.9407	7.42985	1.69209	
76.8156	7.18720	1.70349	
77.7005	6.93453	1.71497	
78.5956	6.67007	1.72652	
79.5010	6.38633	1.73815	
80.4168	6.08740	1.76330	
81.3432	5.78356	1.79171	
82.2803	5.46623	1.82059	
83.2282	5.13293	1.84993	
84.1869	4.78079	1.87974	
85.1568	4.40618	1.91003	
86.1378	4.00182	1.94081	
87.1301	3.56799	1.99241	
88.1338	3.11724	2.04882	
89.1491	2.63966	2.10681	
90.1761	2.12830	2.16645	
91.2149	1.57223	2.22778	
92.2657	0.960925	2.29604	
93.3286	0.301845	2.41223	
94.4037	-0.387288	2.53429	
95.4912	-1.11681	2.66253	
96.5913	-1.91023	2.77172	
97.7040	-2.80789	2.87768	
98.8296	-3.82402	2.98769	
99.9681	-5.01836	3.11949	
101.120	-6.36189	3.37189	
102.285	-7.82554	3.64471	
103.463	-9.54043	3.93961	
104.655	-11.5661	4.41751	
105.860	-13.8850	4.99634	
107.080	-16.6642	5.82789	
108.313	-19.9460	6.89302	
109.561	-24.2469	8.36599	
110.753	-29.5441	10.7418	
112.008	-37.0213	14.9287	
113.298	-44.9382	25.0456	
113.476	-45.7486	26.8825	
114.487	-49.3629	37.8416	
115.135	-49.9598	47.7560	
115.862	-47.3043	58.5573	
116.567	-42.1393	67.9072	
117.910	-27.2761	82.6575	
119.268	-8.50698	87.8669	
120.642	8.02545	86.2709	
122.032	21.2467	81.9631	
123.438	31.6587	74.0773	
124.860	37.3297	65.7944	
126.298	40.1229	58.3796	
127.753	41.7191	53.4598	
129.225	43.2594	49.0215	
130.713	44.3881	44.9516	
132.219	45.1299	41.3467	
133.742	45.7654	38.2488	
135.283	46.4496	35.3830	
136.841	47.0668	32.3397	
138.418	47.3056	29.3206	
140.012	47.2830	26.5832	
141.625	47.0940	23.9028	
143.257	46.5839	21.3590	
144.907	45.8404	19.0860	
146.576	44.9020	17.1250	
148.265	43.9595	15.5672	
149.973	43.1502	14.1511	
151.701	42.3491	12.8638	
153.448	41.5726	11.6937	
155.216	40.8274	10.6223	
157.004	40.0785	9.58051	
158.813	39.2998	8.64088	
160.642	38.5220	7.79340	
162.493	37.7494	7.02905	
164.365	36.9886	6.33966	
166.258	36.2388	5.71788	
168.173	35.4998	5.15709	
170.111	34.7722	4.65817	
172.070	34.0638	4.21324	
174.053	33.3700	3.81083	
176.058	32.6470	3.44684	
178.086	31.9454	3.20681	
180.137	31.3329	2.98988	
182.213	30.7368	2.77210	
184.312	30.1266	2.58213	
186.435	29.5274	2.44450	
188.583	28.9576	2.33343	
190.755	28.3677	2.22801	
192.953	27.7870	2.24956	
195.175	27.2810	2.28810	
197.424	26.7856	2.32731	
199.698	26.3126	2.42909	
201.999	25.9028	2.55385	
204.326	25.5325	2.68501	
206.679	25.1946	2.81820	
209.060	24.8823	2.95552	
211.469	24.6018	3.09954	
213.905	24.3445	3.23215	
216.369	24.0956	3.36604	
218.862	23.8618	3.50549	
221.383	23.6437	3.65071	
223.933	23.4426	3.80196	
226.513	23.2658	3.95946	
229.122	23.1132	4.11094	
231.762	22.9681	4.24174	
234.432	22.8230	4.37670	
237.132	22.6847	4.51595	
239.864	22.5553	4.65964	
242.627	22.4357	4.80789	
245.422	22.3271	4.96086	
248.249	22.2363	5.11870	
251.109	22.1598	5.26950	
254.002	22.0868	5.41446	
256.928	22.0186	5.56342	
259.888	21.9586	5.71647	
262.882	21.9085	5.87373	
265.910	21.8699	6.03532	
268.973	21.8451	6.20136	
272.072	21.8368	6.37195	
275.206	21.8482	6.54725	
278.377	21.9221	6.72736	
281.583	22.0228	6.82763	
284.827	22.0791	6.89093	
288.108	22.1165	6.95482	
291.427	22.1449	7.01930	
294.785	22.1679	7.08438	
298.181	22.1873	7.15007	
301.616	22.2044	7.21636	
305.090	22.2196	7.28327	
308.605	22.2333	7.35079	
312.160	22.2413	7.41936	
315.756	22.2498	7.49943	
319.393	22.2662	7.58037	
323.073	22.2853	7.66217	
326.794	22.3074	7.74487	
330.559	22.3327	7.82845	
334.367	22.3612	7.91294	
338.219	22.3935	7.99835	
342.115	22.4299	8.08466	
346.056	22.4713	8.17192	
350.043	22.5191	8.26011	
354.075	22.5769	8.34926	
358.154	22.6514	8.42743	
362.280	22.7235	8.48174	
366.454	22.7809	8.53638	
370.675	22.8369	8.59139	
374.945	22.8916	8.64675	
379.265	22.9461	8.70247	
383.634	23.0010	8.75854	
388.053	23.0568	8.81498	
392.523	23.1141	8.87178	
397.045	23.1736	8.92895	
401.619	23.2364	8.98648	
406.246	23.3064	9.04439	
410.926	23.3799	9.08769	
415.660	23.4472	9.12966	
420.448	23.5130	9.17182	
425.291	23.5789	9.21418	
430.191	23.6457	9.25674	
435.147	23.7143	9.29949	
440.159	23.7855	9.34243	
445.230	23.8605	9.38558	
450.359	23.9408	9.42892	
455.547	24.0279	9.47246	
460.795	24.1502	9.51621	
466.103	24.2781	9.49897	
471.473	24.3635	9.47657	
476.904	24.4410	9.45422	
482.398	24.5111	9.43193	
487.955	24.5758	9.40968	
493.576	24.6369	9.38750	
499.262	24.6961	9.36537	
505.014	24.7566	9.34328	
510.831	24.8277	9.32125	
516.716	24.8976	9.25677	
522.669	24.9406	9.19158	
528.690	24.9705	9.12685	
534.780	24.9903	9.06256	
540.941	25.0013	8.99873	
547.172	25.0044	8.93535	
553.476	25.0004	8.87242	
559.852	24.9900	8.80993	
566.301	24.9770	8.74788	
572.825	24.9634	8.68209	
579.424	24.9390	8.59276	
586.099	24.8926	8.50436	
592.851	24.8311	8.41686	
599.680	24.7556	8.33026	
606.589	24.6663	8.24456	
613.576	24.5628	8.15973	
620.645	24.4442	8.07578	
627.795	24.3084	7.99269	
635.027	24.1497	7.91461	
642.342	23.9778	7.85428	
649.742	23.8019	7.79441	
657.227	23.6117	7.73499	
664.798	23.4059	7.67602	
672.456	23.1824	7.61751	
680.203	22.9394	7.55945	
688.039	22.6748	7.50182	
695.965	22.3920	7.44463	
703.982	22.0848	7.37633	
712.092	21.7345	7.29066	
720.296	21.3328	7.20598	
728.593	20.8781	7.12228	
736.987	20.3634	7.03956	
745.477	19.7781	6.95779	
754.064	19.1079	6.87698	
762.751	18.3328	6.79710	
771.538	17.4245	6.71815	
780.426	16.3412	6.64012	
789.416	15.0173	6.56300	
798.510	13.3421	6.48677	
807.709	11.1062	6.41143	
817.014	7.83621	6.33696	
826.426	2.02817	6.26336	
835.900	-39.3660	6.19096	
836.100	-39.3275	35.2147	
845.576	3.47234	34.5503	
855.317	10.3823	33.8879	
865.170	14.4949	33.2382	
875.137	17.4289	32.6010	
885.219	19.6953	31.9760	
895.416	21.5227	31.3629	
905.731	23.0326	30.7616	
916.165	24.2955	30.1718	
926.719	25.3533	29.5934	
937.395	26.2268	29.0260	
948.194	26.9104	28.4695	
959.117	27.3099	28.0024	
970.166	27.6532	27.9119	
981.342	28.1800	27.8217	
992.647	28.6977	27.7317	
1004.08	29.2096	27.6421	
1015.65	29.7097	27.5528	
1027.35	30.1943	27.4637	
1039.18	30.6601	27.3749	
1051.16	31.1008	27.2864	
1059.	31.3559	27.2292	
1067.	31.6145	27.2225	
1079.29	32.0374	27.2124	
1091.73	32.4701	27.2024	
1104.30	32.9068	27.1924	
1117.02	33.3461	27.1824	
1129.89	33.7874	27.1725	
1142.91	34.2311	27.1625	
1156.07	34.6779	27.1526	
1169.39	35.1290	27.1427	
1182.86	35.5860	27.1327	
1196.49	36.0512	27.1227	
1210.27	36.5277	27.1127	
1224.21	37.0320	27.1029	
1238.32	37.5634	27.0698	
1252.58	38.1160	26.9983	
1267.01	38.6867	26.8895	
1281.61	39.2229	26.6837	
1296.37	39.7018	26.4795	
1311.31	40.1532	26.2769	
1326.41	40.5854	26.0758	
1341.69	41.0028	25.8760	
1357.15	41.4084	25.6778	
1372.78	41.8048	25.4813	
1388.60	42.1944	25.2864	
1404.59	42.5793	25.0929	
1420.77	42.9621	24.9008	
1437.14	43.3464	24.7102	
1453.70	43.7413	24.5211	
1470.44	44.1487	24.3102	
1487.38	44.5637	24.0871	
1504.52	44.9886	23.8130	
1521.85	45.3751	23.4888	
1539.38	45.7069	23.1691	
1557.12	46.0166	22.8540	
1575.05	46.3070	22.5432	
1593.20	46.5810	22.2363	
1611.55	46.8405	21.9337	
1630.12	47.0873	21.6352	
1648.89	47.3226	21.3408	
1667.89	47.5477	21.0504	
1687.10	47.7633	20.7639	
1706.54	47.9705	20.4815	
1726.20	48.1734	20.2030	
1746.08	48.3689	19.9216	
1766.20	48.5534	19.6425	
1786.55	48.7293	19.3656	
1807.13	48.8959	19.0919	
1827.94	49.0547	18.8222	
1849.	49.2066	18.5564	
1870.30	49.3519	18.2943	
1891.85	49.4910	18.0357	
1913.64	49.6242	17.7809	
1935.69	49.7520	17.5298	
1957.99	49.8747	17.2821	
1980.54	49.9919	17.0377	
2003.36	50.1032	16.7977	
2026.44	50.2163	16.5666	
2049.78	50.3283	16.3285	
2073.39	50.4309	16.0927	
2097.28	50.5288	15.8600	
2121.44	50.6224	15.6302	
2145.88	50.7118	15.4029	
2170.60	50.7969	15.1781	
2195.60	50.8778	14.9561	
2220.90	50.9549	14.7368	
2246.48	51.0287	14.5206	
2272.36	51.0989	14.3060	
2298.54	51.1652	14.0943	
2325.02	51.2281	13.8853	
2351.80	51.2878	13.6788	
2378.89	51.3443	13.4748	
2406.30	51.3976	13.2733	
2434.02	51.4480	13.0743	
2462.06	51.4952	12.8775	
2490.42	51.5397	12.6837	
2519.11	51.5817	12.4917	
2548.13	51.6206	12.3019	
2577.48	51.6568	12.1146	
2607.18	51.6903	11.9292	
2637.21	51.7209	11.7460	
2667.59	51.7488	11.5655	
2698.32	51.7743	11.3871	
2729.41	51.7971	11.2107	
2760.85	51.8176	11.0371	
2792.65	51.8360	10.8654	
2824.82	51.8521	10.6956	
2857.36	51.8656	10.5275	
2890.28	51.8765	10.3616	
2923.58	51.8850	10.1981	
2957.26	51.8914	10.0366	
2991.32	51.8957	9.87704	
3025.78	51.8977	9.71885	
3060.64	51.8970	9.56306	
3095.90	51.8941	9.40915	
3131.56	51.8889	9.25711	
3167.64	51.8815	9.10699	
3204.13	51.8717	8.95871	
3241.04	51.8597	8.81228	
3278.38	51.8453	8.66765	
3316.14	51.8286	8.52480	
3354.35	51.8095	8.38357	
3392.99	51.7879	8.24419	
3432.07	51.7639	8.10652	
3471.61	51.7373	7.97051	
3511.60	51.7081	7.83621	
3552.06	51.6764	7.70361	
3592.98	51.6420	7.57264	
3634.37	51.6048	7.44329	
3676.24	51.5648	7.31550	
3718.59	51.5219	7.18921	
3761.42	51.4758	7.06457	
3804.75	51.4265	6.94140	
3848.58	51.3739	6.81980	
3892.92	51.3179	6.69974	
3937.77	51.2582	6.58115	
3983.13	51.1946	6.46401	
4029.01	51.1271	6.34831	
4075.43	51.0552	6.23396	
4122.38	50.9787	6.12106	
4169.87	50.8973	6.00952	
4217.90	50.8106	5.89943	
4266.49	50.7183	5.79070	
4315.64	50.6197	5.68325	
4365.36	50.5146	5.57726	
4415.65	50.4021	5.47243	
4466.51	50.2816	5.36892	
4517.97	50.1523	5.26669	
4570.01	50.0130	5.16570	
4622.66	49.8625	5.06597	
4675.91	49.6995	4.96749	
4729.78	49.5222	4.87027	
4784.27	49.3284	4.77422	
4839.38	49.1152	4.67933	
4895.13	48.8792	4.58572	
4951.52	48.6157	4.49306	
5008.56	48.3183	4.40160	
5066.26	47.9783	4.31124	
5124.62	47.5827	4.22199	
5183.66	47.1117	4.13387	
5243.37	46.5317	4.04688	
5303.78	45.7795	3.96095	
5364.88	44.7103	3.87616	
5426.68	42.8343	3.79218	
5482.60	27.0888	3.71856	
5482.80	27.0898	11.5446	
5489.19	37.4945	11.5202	
5552.43	43.3637	11.2831	
5616.39	44.8324	11.0510	
5681.09	45.5610	10.8237	
5746.54	45.8678	10.6010	
5812.74	45.7152	10.3830	
5879.70	43.8244	10.1694	
5890.50	38.2201	10.1356	
5890.70	38.2218	13.9402	
5947.43	46.2361	13.7091	
6015.95	47.4804	13.4381	
6085.25	48.1929	13.1723	
6155.35	48.6023	12.9118	
6226.26	48.5792	12.6563	
6266.20	45.3502	12.5159	
6266.40	45.3515	14.3556	
6297.99	48.9300	14.2496	
6370.54	50.0590	14.0110	
6443.93	50.7579	13.7754	
6518.16	51.3113	13.5425	
6593.25	51.7812	13.3125	
6669.20	52.1935	13.0852	
6746.03	52.5619	12.8608	
6823.74	52.8951	12.6394	
6902.35	53.1990	12.4208	
6981.87	53.4780	12.2053	
7062.30	53.7354	11.9925	
7143.66	53.9738	11.7827	
7225.95	54.1952	11.5758	
7309.19	54.4013	11.3715	
7393.39	54.5934	11.1702	
7478.56	54.7730	10.9719	
7564.72	54.9410	10.7764	
7651.86	55.0983	10.5838	
7740.01	55.2458	10.3940	
7829.18	55.3843	10.2070	
7919.37	55.5142	10.0228	
8010.60	55.6361	9.84142	
8102.88	55.7508	9.66284	
8196.22	55.8585	9.48685	
8290.64	55.9595	9.31375	
8386.15	56.0546	9.14331	
8482.76	56.1438	8.97552	
8580.48	56.2276	8.81044	
8679.33	56.3063	8.64800	
8779.31	56.3802	8.48801	
8880.45	56.4494	8.33060	
8982.75	56.5141	8.17581	
9086.23	56.5747	8.02363	
9190.90	56.6315	7.87400	
9296.78	56.6846	7.72681	
9403.88	56.7341	7.58198	
9512.21	56.7802	7.43954	
9621.79	56.8230	7.29968	
9732.63	56.8630	7.16213	
9844.75	56.9001	7.02685	
9958.16	56.9343	6.89391	
10072.9	56.9659	6.76325	
10188.9	56.9951	6.63484	
10306.3	57.0218	6.50865	
10425.0	57.0463	6.38465	
10545.1	57.0686	6.26282	
10666.6	57.0888	6.14312	
10789.5	57.1070	6.02553	
10913.8	57.1234	5.91002	
11039.5	57.1380	5.79656	
11166.7	57.1509	5.68511	
11295.3	57.1621	5.57566	
11425.4	57.1718	5.46816	
11557.0	57.1800	5.36260	
11690.2	57.1868	5.25894	
11824.9	57.1922	5.15716	
11961.1	57.1964	5.05723	
12098.9	57.1993	4.95911	
12238.2	57.2010	4.86279	
12379.2	57.2017	4.76823	
12521.8	57.2012	4.67541	
12666.1	57.1998	4.58430	
12812.0	57.1974	4.49487	
12959.6	57.1940	4.40709	
13108.9	57.1898	4.32095	
13259.9	57.1848	4.23640	
13412.6	57.1789	4.15344	
13567.2	57.1723	4.07202	
13723.4	57.1650	3.99213	
13881.5	57.1570	3.91374	
14041.5	57.1483	3.83683	
14203.2	57.1390	3.76136	
14366.8	57.1292	3.68733	
14532.3	57.1187	3.61469	
14699.7	57.1077	3.54343	
14869.1	57.0963	3.47353	
15040.4	57.0843	3.40496	
15213.6	57.0719	3.33770	
15388.9	57.0590	3.27172	
15566.2	57.0457	3.20700	
15745.5	57.0320	3.14353	
15926.9	57.0180	3.08128	
16110.4	57.0036	3.02022	
16296.0	56.9888	2.96034	
16483.7	56.9738	2.90162	
16673.6	56.9584	2.84404	
16865.7	56.9428	2.78756	
17059.9	56.9268	2.73219	
17256.5	56.9106	2.67788	
17455.3	56.8942	2.62464	
17656.3	56.8775	2.57243	
17859.8	56.8606	2.52124	
18065.5	56.8434	2.47104	
18273.6	56.8261	2.42183	
18484.1	56.8085	2.37358	
18697.1	56.7908	2.32628	
18912.4	56.7728	2.27990	
19130.3	56.7547	2.23444	
19350.7	56.7364	2.18986	
19573.6	56.7180	2.14617	
19799.1	56.6994	2.10333	
20027.2	56.6806	2.06134	
20257.9	56.6616	2.02018	
20491.3	56.6425	1.97983	
20727.3	56.6233	1.94027	
20966.1	56.6038	1.90150	
21207.6	56.5842	1.86350	
21451.9	56.5645	1.82625	
21699.1	56.5446	1.78974	
21949.0	56.5245	1.75395	
22201.9	56.5043	1.71888	
22457.6	56.4839	1.68450	
22716.3	56.4633	1.65080	
22978.0	56.4425	1.61778	
23242.7	56.4215	1.58541	
23510.5	56.4003	1.55369	
23781.3	56.3789	1.52260	
24055.3	56.3573	1.49213	
24332.4	56.3354	1.46227	
24612.7	56.3132	1.43300	
24896.3	56.2908	1.40432	
25183.1	56.2681	1.37622	
25473.2	56.2451	1.34867	
25766.6	56.2217	1.32168	
26063.4	56.1979	1.29523	
26363.7	56.1738	1.26930	
26667.4	56.1492	1.24390	
26974.6	56.1242	1.21900	
27285.3	56.0987	1.19461	
27599.7	56.0726	1.17070	
27917.6	56.0459	1.14727	
28239.2	56.0186	1.12432	
28564.5	55.9906	1.10182	
28893.6	55.9617	1.07978	
29226.4	55.9321	1.05818	
29563.1	55.9014	1.03701	
29903.7	55.8697	1.01627	
30000.0	55.8606	1.01052	
       30400.000        55.738700       0.92494300
       30800.000        55.699200       0.90324300
       31200.000        55.658200       0.88232200
       31500.000        55.626300       0.86712100
       31900.000        55.582100       0.84747500
       32300.000        55.535600       0.82850400
       32600.000        55.499100       0.81470300
       32800.000        55.474000       0.80577600
       33000.000        55.448000       0.79684900
       33200.000        55.421300       0.78822100
       33400.000        55.393600       0.77959400
       33600.000        55.365000       0.77125200
       33800.000        55.335300       0.76291100
       33950.000        55.312400       0.75682700
       34100.000        55.288700       0.75074300
       34300.000        55.256000       0.74284100
       34500.000        55.221800       0.73493800
       34700.000        55.186100       0.72729000
       34900.000        55.148700       0.71964200
       35100.000        55.109200       0.71223700
       35300.000        55.067700       0.70483300
       35500.000        55.023700       0.69766200
       35700.000        54.976900       0.69049100
       35900.000        54.927100       0.68352400
       36030.000        54.892900       0.67899600
       36120.000        54.868200       0.67594600
       36200.000        54.845500       0.67323400
       36300.000        54.816300       0.66984500
       36400.000        54.785800       0.66645600
       36500.000        54.754000       0.66316600
       36600.000        54.720800       0.65987700
       36700.000        54.686100       0.65658700
       36800.000        54.649700       0.65329800
       36880.000        54.619300       0.65073600
       36950.000        54.591600       0.64849500
       37030.000        54.558700       0.64593300
       37100.000        54.528700       0.64369200
       37200.000        54.483700       0.64057400
       37300.000        54.435800       0.63745600
