;  Atomic scattering factors for Lu.
;   
;  Concatenation of data from CXRO <http://www-cxro.lbl.gov>
;  and LLNL <http://www-phys.llnl.gov/V_Div/scattering/asf.html>
;  
;  E (eV) f1 f2
;---------------
       10.000000       -9999.0000        1.6749300
       10.161700       -9999.0000        1.6382400
       10.326100       -9999.0000        1.6023600
       10.493100       -9999.0000        1.5672600
       10.662800       -9999.0000        1.5329300
       10.835300       -9999.0000        1.4993500
       11.010600       -9999.0000        1.4665100
       11.188600       -9999.0000        1.4353800
       11.369600       -9999.0000        1.4242400
       11.553500       -9999.0000        1.4131900
       11.740400       -9999.0000        1.4022300
       11.930300       -9999.0000        1.3896300
       12.123200       -9999.0000        1.3681500
       12.319300       -9999.0000        1.3469900
       12.518600       -9999.0000        1.3261600
       12.721000       -9999.0000        1.3010800
       12.926800       -9999.0000        1.2764400
       13.135900       -9999.0000        1.2522700
       13.348300       -9999.0000        1.2285600
       13.564200       -9999.0000        1.2052900
       13.783600       -9999.0000        1.1826000
       14.006600       -9999.0000        1.1613900
       14.233100       -9999.0000        1.1405700
       14.463300       -9999.0000        1.1201200
       14.697300       -9999.0000        1.1000400
       14.935000       -9999.0000        1.0808700
       15.176500       -9999.0000        1.0652300
       15.422000       -9999.0000        1.0498100
       15.671400       -9999.0000        1.0346200
       15.924900       -9999.0000        1.0196400
       16.182500       -9999.0000        1.0002000
       16.444200       -9999.0000       0.97519100
       16.710200       -9999.0000       0.95080600
       16.980500       -9999.0000       0.92703000
       17.255100       -9999.0000       0.90385000
       17.534200       -9999.0000       0.88151400
       17.817800       -9999.0000       0.86248000
       18.106000       -9999.0000       0.84385800
       18.398900       -9999.0000       0.82563700
       18.696400       -9999.0000       0.80781000
       18.998800       -9999.0000       0.79036800
       19.306100       -9999.0000       0.77457300
       19.618400       -9999.0000       0.75947300
       19.935700       -9999.0000       0.74466800
       20.258200       -9999.0000       0.73015000
       20.585800       -9999.0000       0.71594500
       20.918800       -9999.0000       0.70363400
       21.257100       -9999.0000       0.69153400
       21.600900       -9999.0000       0.67964200
       21.950300       -9999.0000       0.66795500
       22.305300       -9999.0000       0.65606200
       22.666100       -9999.0000       0.64433200
       23.032700       -9999.0000       0.63376200
       23.405300       -9999.0000       0.63056400
       23.783800       -9999.0000       0.62738200
       24.168500       -9999.0000       0.62439800
       24.559400       -9999.0000       0.62214000
       24.956600       -9999.0000       0.61989000
       25.360300       -9999.0000       0.61783500
       25.770500       -9999.0000       0.61748000
       26.187300       -9999.0000       0.61712600
       26.610900       -9999.0000       0.62068200
       27.041300       -9999.0000       0.64134100
       27.478600       -9999.0000       0.66938300
       27.923100       -9999.0000       0.70577000
       28.374700       -9999.0000       0.78680600
       28.833700       -9999.0000       0.94578000
       29.300000       -5.1309000        2.2299000
       29.773900       -6.1853900        3.3620900
       30.255500       -6.3245300        6.1283400
       30.744900       -5.7783400        8.0799500
       31.242100       -5.0448500        9.7334400
       31.747500       -3.7415500        10.738800
       32.260900       -2.5998600        11.377500
       32.782700       -1.7024800        11.760700
       33.313000      -0.88787500        12.111700
       33.851800      -0.18943400        12.358800
       34.399300       0.41374500        12.610800
       34.955700        1.0170600        12.959500
       35.521100        1.7115700        13.318000
       36.095600        2.6051800        13.538400
       36.679400        3.3535200        13.513600
       37.272700        4.0210300        13.502900
       37.875500        4.6981000        13.492300
       38.488200        5.4965900        13.274700
       39.110700        5.9562100        12.861200
       39.743200        6.2797200        12.662000
       40.386100        6.6227600        12.486700
       41.039300        6.9508800        12.313900
       41.703100        7.2582400        12.144800
       42.377600        7.5513400        11.980300
       43.063000        7.8390900        11.818000
       43.759500        8.1254800        11.612700
       44.467300        8.3483800        11.384900
       45.186500        8.5186400        11.161600
       45.917400        8.6202400        10.975300
       46.660000        8.7305700        10.828000
       47.414700        8.8200700        10.682700
       48.181600        8.8524700        10.605300
       48.960900        8.9523200        10.588800
       49.752800        9.0965500        10.572400
       50.557600        9.3051500        10.513900
       51.375300        9.4636600        10.397700
       52.206200        9.5888000        10.282800
       53.050600        9.6905500        10.169100
       53.908700        9.7594800        10.078900
       54.780600        9.8427300        10.010700
       55.666700        9.9303300        9.9429800
       56.567000        10.015300        9.8757000
       57.482000        10.096500        9.8090100
       58.411700        10.172500        9.7427700
       59.356400        10.241100        9.6769800
       60.316500        10.298300        9.6195900
       61.292100        10.359600        9.5706400
       62.283400        10.421900        9.5219500
       63.290800        10.488100        9.4734900
       64.314500        10.543000        9.4008400
       65.354700        10.573300        9.3287600
       66.411800        10.565600        9.2572300
       67.485900        10.544900        9.2643800
       68.577500        10.557000        9.2822700
       69.686700        10.587500        9.3002100
       70.813800        10.627400        9.3181700
       71.959100        10.679200        9.3329400
       73.123000        10.730300        9.3376400
       74.305700        10.780300        9.3423300
       75.507600        10.833500        9.3470300
       76.728900        10.899200        9.3517400
       77.969900        10.980200        9.3141600
       79.231000        11.015800        9.2481000
       80.512500        11.018200        9.1825100
       81.814700        10.986500        9.1173900
       83.138000        10.893300        9.0527300
       84.482700        10.685600        9.1160500
       85.849100        10.599900        9.2961400
       87.237700        10.609400        9.4797800
       88.648700        10.696800        9.6121700
       90.082500        10.754800        9.6895300
       91.539500        10.804100        9.7675100
       93.020100        10.857000        9.8461200
       94.524600        10.931200        9.9112200
       96.053500        10.981800        9.9391300
       97.607100        11.009900        9.9671200
       99.185800        11.016800        9.9951900
       100.79000        10.986800        10.037300
       102.42000        10.967200        10.123700
       104.07700        10.955600        10.210800
       105.76000        10.942100        10.298700
       107.47100        10.911200        10.387300
       109.20900        10.872200        10.524500
       110.97500        10.856300        10.675000
       112.77000        10.854500        10.827700
       114.59400        10.855400        10.982500
       116.44800        10.855400        11.152800
       118.33100        10.870300        11.334100
       120.24500        10.896600        11.518400
       122.19000        10.929800        11.705600
       124.16600        10.968200        11.895900
       126.17500        11.006400        12.093600
       128.21500        11.057500        12.305400
       130.28900        11.120500        12.520900
       132.39700        11.194000        12.740200
       134.53800        11.277900        12.963300
       136.71400        11.373000        13.189900
       138.92500        11.479200        13.419800
       141.17200        11.598200        13.653600
       143.45600        11.734300        13.891500
       145.77600        11.905200        14.133500
       148.13400        12.092900        14.324900
       150.53000        12.260300        14.502900
       152.96400        12.421300        14.683100
       155.43900        12.582600        14.865500
       157.95300        12.749800        15.050200
       160.50700        12.926800        15.222800
       163.10300        13.095100        15.387100
       165.74200        13.257100        15.553300
       168.42200        13.417300        15.721200
       171.14600        13.575900        15.890900
       173.91500        13.731200        16.062500
       176.72700        13.883100        16.245200
       179.58600        14.041900        16.434800
       182.49100        14.208000        16.625000
       185.44200        14.370800        16.811200
       188.44200        14.523500        16.998100
       191.48900        14.636100        17.200200
       194.58700        14.771400        17.482400
       197.73400        14.936800        17.793700
       200.93200        15.160100        18.131100
       204.18200        15.436000        18.474700
       207.48500        15.775200        18.825100
       210.84000        16.241000        19.182400
       214.25100        16.736200        19.313300
       217.71600        17.194600        19.395400
       221.23700        17.577600        19.438600
       224.81600        17.924300        19.481600
       228.45200        18.248600        19.524600
       232.14700        18.556700        19.567500
       235.90200        18.852200        19.610600
       239.71700        19.137600        19.653700
       243.59500        19.413800        19.696800
       247.53500        19.682500        19.740600
       251.53800        19.945000        19.784200
       255.60700        20.199900        19.827200
       259.74100        20.447800        19.871300
       263.94200        20.688700        19.915300
       268.21100        20.920300        19.959000
       272.54900        21.138000        20.003400
       276.95700        21.327800        20.069000
       281.43700        21.527000        20.161800
       285.98900        21.742400        20.272800
       290.61500        21.970800        20.386700
       295.31500        22.208900        20.501000
       300.09200        22.454100        20.616700
       304.94500        22.706200        20.732600
       309.87800        22.963600        20.848300
       314.89000        23.226100        20.965400
       319.98300        23.494400        21.083400
       325.15800        23.768900        21.202000
       330.41800        24.049400        21.321200
       335.76200        24.336400        21.441200
       341.19200        24.630800        21.562200
       346.71100        24.933100        21.683000
       352.31900        25.243300        21.804400
       358.01700        25.563400        21.927200
       363.80800        25.894900        22.050400
       369.69200        26.239800        22.174600
       375.67200        26.602700        22.299900
       381.74800        26.991800        22.425400
       387.92200        27.425000        22.536300
       394.19700        27.904800        22.614000
       400.57300        28.389800        22.582900
       407.05200        28.807000        22.508900
       413.63500        29.185900        22.436000
       420.32600        29.540900        22.362700
       427.12400        29.876200        22.289500
       434.03200        30.193100        22.216500
       441.05200        30.491600        22.143700
       448.18600        30.740500        22.080900
       455.43500        30.987700        22.067500
       462.80200        31.246600        22.089100
       470.28700        31.532600        22.129700
       477.89400        31.845700        22.171100
       485.62300        32.175900        22.211500
       493.47800        32.522400        22.251800
       501.45900        32.890000        22.293500
       509.57000        33.285900        22.334200
       517.81200        33.736000        22.360500
       526.18700        34.224300        22.336600
       534.69800        34.716100        22.217100
       543.34600        35.145000        22.051100
       552.13400        35.540700        21.886400
       561.06500        35.917500        21.710800
       570.13900        36.274700        21.529900
       579.36100        36.611700        21.344600
       588.73200        36.933500        21.159900
       598.25400        37.243000        20.976000
       607.93000        37.543300        20.793600
       617.76300        37.837600        20.612900
       627.75500        38.133500        20.432400
       637.90800        38.429500        20.237000
       648.22600        38.715800        20.019500
       658.71100        38.970700        19.788600
       669.36500        39.194400        19.560200
       680.19100        39.393000        19.365200
       691.19300        39.601800        19.195400
       702.37200        39.843300        19.029900
       713.73300        40.094800        18.828700
       725.27700        40.318900        18.604300
       737.00800        40.523700        18.382300
       748.92800        40.716700        18.162700
       761.04200        40.901900        17.945300
       773.35100        41.083100        17.726700
       785.85900        41.257600        17.498900
       798.57000        41.414000        17.264400
       811.48600        41.555400        17.032700
       824.61100        41.685100        16.803900
       837.94900        41.804900        16.578000
       851.50200        41.915200        16.353300
       865.27400        42.015900        16.129900
       879.26900        42.105900        15.907900
       893.49100        42.186000        15.688600
       907.94300        42.257400        15.472100
       922.62800        42.322200        15.258400
       937.55100        42.377400        15.040700
       952.71500        42.421600        14.824300
       968.12400        42.454200        14.609600
       983.78300        42.477200        14.397700
       999.69500        42.492900        14.186300
       1015.8600        42.504600        13.975300
       1032.2900        42.499300        13.745300
       1048.9900        42.473300        13.515900
       1065.9600        42.425100        13.287200
       1083.2000        42.357100        13.062300
       1100.7200        42.270200        12.840900
       1118.5200        42.164000        12.623100
       1136.6100        42.037200        12.408200
       1155.0000        41.889000        12.196900
       1173.6800        41.718200        11.989200
       1192.6600        41.522800        11.784600
       1211.9500        41.300700        11.583200
       1231.5500        41.048900        11.385000
       1251.4700        40.764100        11.189900
       1271.7200        40.442300        10.998500
       1292.2900        40.079100        10.810500
       1313.1900        39.668100        10.625700
       1334.4300        39.201600        10.443700
       1356.0100        38.668800        10.264300
       1377.9400        38.056000        10.088100
       1400.2300        37.345400        9.9147300
       1422.8800        36.511200        9.7440600
       1445.8900        35.516200        9.5759400
       1469.2800        34.303700        9.4086000
       1493.0400        32.776700        9.2410900
       1517.1900        30.747000        9.0646700
       1541.7300        27.805200        8.8899200
       1566.6700        22.605400        8.7184200
       1588.4000       -11.035000        8.5738000
       1588.6000       -11.035800        27.827000
       1592.0100        10.657300        27.731200
       1617.7600        21.187100        27.024400
       1643.9200        21.336000        33.689100
       1670.5100        27.149200        38.942500
       1697.5300        33.622000        38.021800
       1724.9900        37.308200        37.122200
       1752.8900        40.032200        36.245000
       1781.2400        42.200500        35.389100
       1810.0500        43.991900        34.553900
       1839.3200        45.503300        33.738100
       1869.0700        46.793000        32.941700
       1899.3000        47.898600        32.164400
       1930.0200        48.842800        31.405600
       1961.2400        49.633900        30.664900
       1992.9600        50.250500        29.942100
       2023.5000        49.772600        29.272800
       2023.7000        49.782300        29.866800
       2025.2000        50.334900        29.834000
       2057.9500        51.453600        29.130900
       2091.2400        51.994700        28.444400
       2125.0600        52.349200        27.775100
       2159.4300        52.508600        27.121200
       2194.3600        52.388600        26.483800
       2229.8500        51.671600        25.861400
       2263.4000        41.764900        25.295300
       2263.6000        41.780900        31.265100
       2265.9200        47.427000        31.218800
       2302.5700        53.089500        30.501200
       2339.8100        54.808900        29.801000
       2377.6600        55.954300        29.117200
       2416.1100        56.816700        28.450100
       2455.1900        57.514400        27.799500
       2491.1000        58.350200        27.223700
       2491.3000        58.351800        27.190200
       2494.9000        57.733400        27.230200
       2535.2600        58.362700        27.679400
       2576.2600        59.361400        27.094700
       2617.9300        60.066300        26.519500
       2660.2700        60.668500        25.953700
       2703.3000        61.203600        25.396600
       2747.0300        61.686900        24.849100
       2791.4600        62.128100        24.311400
       2836.6100        62.533200        23.783200
       2882.4900        62.907100        23.264600
       2929.1100        63.252800        22.754800
       2976.4800        63.572800        22.254500
       3024.6300        63.869400        21.763300
       3073.5500        64.144700        21.281800
       3123.2600        64.400900        20.809300
       3173.7800        64.638500        20.345000
       3225.1100        64.859400        19.890400
       3277.2700        65.064200        19.443300
       3330.2800        65.253500        19.005800
       3384.1500        65.429400        18.577300
       3438.8800        65.592300        18.156700
       3494.5000        65.743100        17.744400
       3551.0200        65.881400        17.339900
       3608.4600        66.009000        16.944800
       3666.8200        66.126300        16.556400
       3726.1300        66.234000        16.177200
       3786.4000        66.332000        15.804100
       3847.6400        66.420800        15.439900
       3909.8700        66.501600        15.082800
       3973.1100        66.574200        14.733200
       4037.3800        66.639100        14.390900
       4102.6800        66.696700        14.055800
       4169.0300        66.747200        13.727800
       4236.4600        66.791100        13.406700
       4304.9800        66.828600        13.092600
       4374.6200        66.860000        12.785100
