;  Atomic scattering factors for N.
;   
;  Concatenation of data from CXRO <http://www-cxro.lbl.gov>
;  and LLNL <http://www-phys.llnl.gov/V_Div/scattering/asf.html>
;  
;  E (eV) f1 f2
;---------------
       10.000000       -9999.0000       0.67784700
       10.161700       -9999.0000       0.68963100
       10.326100       -9999.0000       0.70162000
       10.493100       -9999.0000       0.71381700
       10.662800       -9999.0000       0.72622700
       10.835300       -9999.0000       0.73885200
       11.010600       -9999.0000       0.75169700
       11.188600       -9999.0000       0.76583900
       11.369600       -9999.0000       0.78602600
       11.553500       -9999.0000       0.80674300
       11.740400       -9999.0000       0.82800800
       11.930300       -9999.0000       0.84983300
       12.123200       -9999.0000       0.87223300
       12.319300       -9999.0000       0.89522300
       12.518600       -9999.0000       0.91928000
       12.721000       -9999.0000       0.95462200
       12.926800       -9999.0000       0.99132300
       13.135900       -9999.0000        1.0294300
       13.348300       -9999.0000        1.0690100
       13.564200       -9999.0000        1.1101100
       13.783600       -9999.0000        1.1527900
       14.006600       -9999.0000        1.2243200
       14.233100       -9999.0000        1.3042400
       14.463300       -9999.0000        1.3893800
       14.697300       -9999.0000        1.4800800
       14.935000       -9999.0000        1.5767000
       15.176500       -9999.0000        1.6865500
       15.422000       -9999.0000        1.8062500
       15.671400       -9999.0000        1.9344500
       15.924900       -9999.0000        2.0717500
       16.182500       -9999.0000        2.2187900
       16.444200       -9999.0000        2.3762700
       16.710200       -9999.0000        2.5449200
       16.980500       -9999.0000        2.6809100
       17.255100       -9999.0000        2.8204400
       17.534200       -9999.0000        2.9672400
       17.817800       -9999.0000        3.1216900
       18.106000       -9999.0000        3.2841700
       18.398900       -9999.0000        3.4551100
       18.696400       -9999.0000        3.6349400
       18.998800       -9999.0000        3.7919600
       19.306100       -9999.0000        3.9406900
       19.618400       -9999.0000        4.0952600
       19.935700       -9999.0000        4.2558800
       20.258200       -9999.0000        4.4228100
       20.585800       -9999.0000        4.5419200
       20.918800       -9999.0000        4.6217200
       21.257100       -9999.0000        4.7029200
       21.600900       -9999.0000        4.7855400
       21.950300       -9999.0000        4.8696300
       22.305300       -9999.0000        4.9231500
       22.666100       -9999.0000        4.9475700
       23.032700       -9999.0000        4.9721100
       23.405300       -9999.0000        4.9967800
       23.783800       -9999.0000        5.0215600
       24.168500       -9999.0000        5.0213800
       24.559400       -9999.0000        4.9921500
       24.956600       -9999.0000        4.9630900
       25.360300       -9999.0000        4.9342000
       25.770500       -9999.0000        4.9054700
       26.187300       -9999.0000        4.8769200
       26.610900       -9999.0000        4.8485300
       27.041300       -9999.0000        4.8203000
       27.478600       -9999.0000        4.7725200
       27.923100       -9999.0000        4.6968700
       28.374700       -9999.0000        4.6224100
       28.833700       -9999.0000        4.5491300
       29.300000        3.0967000        4.4770100
       29.773900        3.1857400        4.4060400
       30.255500        3.2686100        4.3361900
       30.744900        3.3458900        4.2674500
       31.242100        3.4179300        4.1998000
       31.747500        3.4849700        4.1332200
       32.260900        3.5452100        4.0677000
       32.782700        3.6000400        4.0071100
       33.313000        3.6540600        3.9522300
       33.851800        3.7076600        3.8981000
       34.399300        3.7594200        3.8447100
       34.955700        3.8088700        3.7920500
       35.521100        3.8555100        3.7401200
       36.095600        3.8983400        3.6888900
       36.679400        3.9342800        3.6383700
       37.200000        3.9398800        3.5945700
       37.400000        3.9559400        3.6410400
       37.875500        4.0277300        3.6015000
       38.488200        4.0871000        3.5519100
       39.110700        4.1388100        3.5030000
       39.743200        4.1866300        3.4547600
       40.386100        4.2317900        3.4071900
       41.039300        4.2748600        3.3602700
       41.703100        4.3161900        3.3140000
       42.377600        4.3560100        3.2683600
       43.063000        4.3945100        3.2233600
       43.759500        4.4318800        3.1789700
       44.467300        4.4683200        3.1352000
       45.186500        4.5040000        3.0920300
       45.917400        4.5412400        3.0494500
       46.660000        4.5780600        3.0028300
       47.414700        4.6102200        2.9544200
       48.181600        4.6391000        2.9067800
       48.960900        4.6653100        2.8599200
       49.752800        4.6889100        2.8138100
       50.557600        4.7096300        2.7684400
       51.375300        4.7267200        2.7238100
       52.206200        4.7374300        2.6798900
       53.050600        4.7287300        2.6366800
       53.908700        4.7438100        2.6584100
       54.780600        4.7955100        2.6310100
       55.666700        4.8237700        2.5980300
       56.567000        4.8517400        2.5654600
       57.482000        4.8786800        2.5332800
       58.411700        4.9053600        2.5015000
       59.356400        4.9324400        2.4691300
       60.316500        4.9589200        2.4355700
       61.292100        4.9846600        2.4016400
       62.283400        5.0092200        2.3663000
       63.290800        5.0316900        2.3314600
       64.314500        5.0532500        2.2971000
       65.354700        5.0739800        2.2632700
       66.411800        5.0941200        2.2299700
       67.485900        5.1138500        2.1971600
       68.577500        5.1335000        2.1648200
       69.686700        5.1531500        2.1319600
       70.813800        5.1722200        2.0989900
       71.959100        5.1904400        2.0652100
       73.123000        5.2072600        2.0317200
       74.305700        5.2231100        1.9987800
       75.507600        5.2382700        1.9663500
       76.728900        5.2528900        1.9344600
       77.969900        5.2672100        1.9030900
       79.231000        5.2811600        1.8715600
       80.512500        5.2945800        1.8405300
       81.814700        5.3076700        1.8091900
       83.138000        5.3197700        1.7778800
       84.482700        5.3309000        1.7471100
       85.849100        5.3414200        1.7168700
       87.237700        5.3514700        1.6871500
       88.648700        5.3610800        1.6578400
       90.082500        5.3703000        1.6289100
       91.539500        5.3791300        1.6003100
       93.020100        5.3874000        1.5719000
       94.524600        5.3951400        1.5440000
       96.053500        5.4025000        1.5166100
       97.607100        5.4095700        1.4896900
       99.185800        5.4168900        1.4632600
       100.79000        5.4241500        1.4362800
       102.42000        5.4301900        1.4088700
       104.07700        5.4353000        1.3822200
       105.76000        5.4399400        1.3560600
       107.47100        5.4440600        1.3303900
       109.20900        5.4477300        1.3051900
       110.97500        5.4509900        1.2804800
       112.77000        5.4538900        1.2562400
       114.59400        5.4564400        1.2324500
       116.44800        5.4586600        1.2091400
       118.33100        5.4606100        1.1862700
       120.24500        5.4623000        1.1638100
       122.19000        5.4637300        1.1417700
       124.16600        5.4649300        1.1201400
       126.17500        5.4659500        1.0989400
       128.21500        5.4669500        1.0781500
       130.28900        5.4680100        1.0576000
       132.39700        5.4687700        1.0365100
       134.53800        5.4688100        1.0158200
       136.71400        5.4684100       0.99554900
       138.92500        5.4676600       0.97569300
       141.17200        5.4666300       0.95624100
       143.45600        5.4653400       0.93717400
       145.77600        5.4638200       0.91847100
       148.13400        5.4620800       0.90015500
       150.53000        5.4602000       0.88221200
       152.96400        5.4582000       0.86461000
       155.43900        5.4561600       0.84736200
       157.95300        5.4542100       0.83045800
       160.50700        5.4530400       0.81356700
       163.10300        5.4520200       0.79554800
       165.74200        5.4495700       0.77626000
       168.42200        5.4457700       0.75743800
       171.14600        5.4411200       0.73907400
       173.91500        5.4358000       0.72115400
       176.72700        5.4298900       0.70367000
       179.58600        5.4234300       0.68660800
       182.49100        5.4164700       0.66996100
       185.44200        5.4090300       0.65371800
       188.44200        5.4011100       0.63786800
       191.48900        5.3927400       0.62240200
       194.58700        5.3839200       0.60731200
       197.73400        5.3746500       0.59258700
       200.93200        5.3649400       0.57821900
       204.18200        5.3547700       0.56420000
       207.48500        5.3441500       0.55052100
       210.84000        5.3330800       0.53717300
       214.25100        5.3215500       0.52414900
       217.71600        5.3095700       0.51144000
       221.23700        5.2973300       0.49899700
       224.81600        5.2845000       0.48626800
       228.45200        5.2706700       0.47386500
       232.14700        5.2561200       0.46177800
       235.90200        5.2408400       0.44999900
       239.71700        5.2248000       0.43852100
       243.59500        5.2079600       0.42733500
       247.53500        5.1902900       0.41643500
       251.53800        5.1717500       0.40581200
       255.60700        5.1522700       0.39546100
       259.74100        5.1317800       0.38537400
       263.94200        5.1102300       0.37554400
       268.21100        5.0875300       0.36596500
       272.54900        5.0635700       0.35663000
       276.95700        5.0382600       0.34753300
       281.43700        5.0114700       0.33866800
       285.98900        4.9830700       0.33003000
       290.61500        4.9529200       0.32161100
       295.31500        4.9208300       0.31340800
       300.09200        4.8866400       0.30541300
       304.94500        4.8501700       0.29762300
       309.87800        4.8115200       0.29003200
       314.89000        4.7702400       0.28096900
       319.98300        4.7242000       0.27109700
       325.15800        4.6728500       0.26157100
       330.41800        4.6161600       0.25238000
       335.76200        4.5533900       0.24351200
       341.19200        4.4835300       0.23495600
       346.71100        4.4052500       0.22670000
       352.31900        4.3168100       0.21873400
       358.01700        4.2157700       0.21104900
       363.80800        4.0987700       0.20364400
       369.69200        3.9609900       0.19661400
       375.67200        3.7950400       0.18982700
       381.74800        3.5887400       0.18327500
       387.92200        3.3203500       0.17694800
       394.19700        2.9448100       0.17084000
       400.57300        2.3417500       0.16494300
       407.05200       0.90275500       0.15924900
       409.80000       -3.3472900       0.15691900
       410.00000       -3.3407000        4.1914500
       413.63500        1.3747500        4.1430800
       420.32600        2.7699300        4.0565700
       427.12400        3.4718000        3.9718700
       434.03200        3.9503000        3.8889400
       441.05200        4.3151800        3.8077400
       448.18600        4.6103800        3.7282400
       455.43500        4.8580800        3.6503900
       462.80200        5.0711500        3.5741700
       470.28700        5.2577300        3.4995400
       477.89400        5.4233500        3.4264800
       485.62300        5.5719200        3.3549300
       493.47800        5.7063500        3.2848800
       501.45900        5.8288800        3.2162900
       509.57000        5.9412400        3.1491400
       517.81200        6.0448700        3.0833900
       526.18700        6.1409500        3.0190100
       534.69800        6.2305100        2.9559700
       543.34600        6.3145200        2.8942500
       552.13400        6.3940500        2.8338200
       561.06500        6.4710600        2.7746500
       570.13900        6.5460900        2.7106500
       579.36100        6.6131700        2.6439600
       588.73200        6.6726200        2.5789000
       598.25400        6.7271700        2.5154500
       607.93000        6.7773700        2.4535500
       617.76300        6.8237300        2.3931900
       627.75500        6.8666400        2.3343000
       637.90800        6.9064300        2.2768700
       648.22600        6.9433700        2.2208400
       658.71100        6.9777100        2.1662000
       669.36500        7.0096700        2.1129000
       680.19100        7.0394300        2.0609100
       691.19300        7.0671800        2.0102100
       702.37200        7.0930800        1.9607400
       713.73300        7.1172800        1.9125000
       725.27700        7.1399500        1.8654400
       737.00800        7.1612400        1.8195400
       748.92800        7.1813200        1.7747800
       761.04200        7.2008200        1.7311100
       773.35100        7.2197300        1.6875500
       785.85900        7.2371000        1.6434800
       798.57000        7.2523000        1.5998000
       811.48600        7.2655000        1.5572700
       824.61100        7.2772400        1.5158800
       837.94900        7.2875400        1.4755900
       851.50200        7.2965900        1.4367200
       865.27400        7.3047200        1.3992400
       879.26900        7.3122600        1.3630500
       893.49100        7.3193400        1.3277800
       907.94300        7.3258600        1.2934400
       922.62800        7.3321200        1.2600000
       937.55100        7.3379300        1.2266900
       952.71500        7.3427400        1.1941000
       968.12400        7.3468500        1.1622300
       983.78300        7.3502600        1.1312100
       999.69500        7.3531100        1.1010400
       1015.8600        7.3554500        1.0716900
       1032.2900        7.3575300        1.0434000
       1048.9900        7.3596500        1.0153900
       1065.9600        7.3611300       0.98763500
       1083.2000        7.3618700       0.96064400
       1100.7200        7.3621900       0.93438200
       1118.5200        7.3621200       0.90882800
       1136.6100        7.3617100       0.88396700
       1155.0000        7.3609900       0.85979200
       1173.6800        7.3600200       0.83628900
       1192.6600        7.3588500       0.81342600
       1211.9500        7.3575100       0.79118900
       1231.5500        7.3561600       0.76956100
       1251.4700        7.3547900       0.74822000
       1271.7200        7.3532100       0.72715400
       1292.2900        7.3512400       0.70629900
       1313.1900        7.3487700       0.68603100
       1334.4300        7.3460300       0.66634800
       1356.0100        7.3430900       0.64723700
       1377.9400        7.3399600       0.62864000
       1400.2300        7.3366400       0.61059100
       1422.8800        7.3332100       0.59308900
       1445.8900        7.3297100       0.57606100
       1469.2800        7.3261100       0.55950500
       1493.0400        7.3225000       0.54340700
       1517.1900        7.3188300       0.52758600
       1541.7300        7.3149100       0.51221300
       1566.6700        7.3109200       0.49731000
       1592.0100        7.3068800       0.48283100
       1617.7600        7.3027900       0.46877200
       1643.9200        7.2986600       0.45512000
       1670.5100        7.2945200       0.44186700
       1697.5300        7.2903700       0.42900000
       1724.9900        7.2862800       0.41650900
       1752.8900        7.2822400       0.40420100
       1781.2400        7.2780800       0.39219800
       1810.0500        7.2738600       0.38050800
       1839.3200        7.2695900       0.36916900
       1869.0700        7.2653000       0.35816700
       1899.3000        7.2610100       0.34749200
       1930.0200        7.2567200       0.33713400
       1961.2400        7.2524500       0.32708600
       1992.9600        7.2481700       0.31734000
       2025.2000        7.2439600       0.30799700
       2057.9500        7.2399000       0.29873300
       2091.2400        7.2357800       0.28972500
       2125.0600        7.2316700       0.28097500
       2159.4300        7.2275700       0.27246900
       2194.3600        7.2235000       0.26421000
       2229.8500        7.2194500       0.25618500
       2265.9200        7.2154300       0.24839400
       2302.5700        7.2114500       0.24082200
       2339.8100        7.2075000       0.23347100
       2377.6600        7.2035800       0.22632600
       2416.1100        7.1997000       0.21939000
       2455.1900        7.1958600       0.21265600
       2494.9000        7.1920600       0.20612000
       2535.2600        7.1883100       0.19977200
       2576.2600        7.1845900       0.19360800
       2617.9300        7.1809300       0.18763000
       2660.2700        7.1773000       0.18181600
       2703.3000        7.1737200       0.17618200
       2747.0300        7.1701900       0.17071100
       2791.4600        7.1667000       0.16539900
       2836.6100        7.1632700       0.16025000
       2882.4900        7.1598800       0.15524800
       2929.1100        7.1565400       0.15038900
       2976.4800        7.1532400       0.14568000
       3024.6300        7.1500000       0.14111000
       3073.5500        7.1468000       0.13667300
       3123.2600        7.1436500       0.13237000
       3173.7800        7.1405500       0.12819500
       3225.1100        7.1375000       0.12415300
       3277.2700        7.1345100       0.12021900
       3330.2800        7.1315500       0.11641100
       3384.1500        7.1286500       0.11271700
       3438.8800        7.1257900       0.10913400
       3494.5000        7.1229900       0.10565800
       3551.0200        7.1202300       0.10228600
       3608.4600        7.1175200      0.099016100
       3666.8200        7.1148600      0.095845300
       3726.1300        7.1122400      0.092771000
       3786.4000        7.1096700      0.089789000
       3847.6400        7.1071400      0.086898100
       3909.8700        7.1046700      0.084095100
       3973.1100        7.1022400      0.081377700
       4037.3800        7.0998500      0.078731200
       4102.6800        7.0974900      0.076179400
       4169.0300        7.0951800      0.073706200
       4236.4600        7.0929200      0.071312000
       4304.9800        7.0907000      0.068991500
       4374.6200        7.0885300      0.066744000
       4445.3700        7.0864000      0.064567300
       4517.2700        7.0843000      0.062458800
       4590.3300        7.0822600      0.060416700
       4664.5800        7.0802500      0.058439000
       4740.0300        7.0782800      0.056523000
