;  Atomic scattering factors for Na.
;   
;  Concatenation of data from CXRO <http://www-cxro.lbl.gov>
;  and LLNL <http://www-phys.llnl.gov/V_Div/scattering/asf.html>
;  
;  E (eV) f1 f2
;---------------
       10.000000       -9999.0000      0.014753400
       10.161700       -9999.0000      0.015168400
       10.326100       -9999.0000      0.015595000
       10.493100       -9999.0000      0.016033700
       10.662800       -9999.0000      0.016484700
       10.835300       -9999.0000      0.016948500
       11.010600       -9999.0000      0.017425200
       11.188600       -9999.0000      0.017915400
       11.369600       -9999.0000      0.018419300
       11.553500       -9999.0000      0.018937400
       11.740400       -9999.0000      0.019470100
       11.930300       -9999.0000      0.020017800
       12.123200       -9999.0000      0.020580900
       12.319300       -9999.0000      0.021159800
       12.518600       -9999.0000      0.021755000
       12.721000       -9999.0000      0.022367000
       12.926800       -9999.0000      0.022996200
       13.135900       -9999.0000      0.023643000
       13.348300       -9999.0000      0.024308100
       13.564200       -9999.0000      0.024991900
       13.783600       -9999.0000      0.025515000
       14.006600       -9999.0000      0.025986200
       14.233100       -9999.0000      0.026466100
       14.463300       -9999.0000      0.026954900
       14.697300       -9999.0000      0.027452700
       14.935000       -9999.0000      0.027959700
       15.176500       -9999.0000      0.028476100
       15.422000       -9999.0000      0.029002000
       15.671400       -9999.0000      0.029412500
       15.924900       -9999.0000      0.029798500
       16.182500       -9999.0000      0.030189500
       16.444200       -9999.0000      0.030585700
       16.710200       -9999.0000      0.030987000
       16.980500       -9999.0000      0.031393600
       17.255100       -9999.0000      0.031805500
       17.534200       -9999.0000      0.032222900
       17.817800       -9999.0000      0.032567100
       18.106000       -9999.0000      0.032817800
       18.398900       -9999.0000      0.033070400
       18.696400       -9999.0000      0.033325000
       18.998800       -9999.0000      0.033581500
       19.306100       -9999.0000      0.033840000
       19.618400       -9999.0000      0.034100400
       19.935700       -9999.0000      0.034362900
       20.258200       -9999.0000      0.034627400
       20.585800       -9999.0000      0.034826400
       20.918800       -9999.0000      0.034901700
       21.257100       -9999.0000      0.034977200
       21.600900       -9999.0000      0.035052900
       21.950300       -9999.0000      0.035128700
       22.305300       -9999.0000      0.035204700
       22.666100       -9999.0000      0.035280800
       23.032700       -9999.0000      0.035357100
       23.405300       -9999.0000      0.035433600
       23.783800       -9999.0000      0.035510200
       24.168500       -9999.0000      0.035587000
       24.559400       -9999.0000      0.035867500
       24.956600       -9999.0000      0.036168300
       25.360300       -9999.0000      0.036471600
       25.770500       -9999.0000      0.036777500
       26.187300       -9999.0000      0.037086000
       26.610900       -9999.0000      0.037204800
       27.041300       -9999.0000      0.037064800
       27.478600       -9999.0000      0.036925300
       27.923100       -9999.0000      0.036786400
       28.374700       -9999.0000      0.036647900
       28.833700       -9999.0000      0.036510000
       29.300000       -2.0395000      0.036372600
       29.773900       -2.4745500      0.036235700
       30.255500       -3.3631500      0.036099400
       30.400000       -4.0594200      0.036059000
       30.600000       -4.1146100        2.3917700
       30.744900       -3.4773500        2.4123500
       31.242100       -2.7313900        2.4835900
       31.747500       -2.4093300        2.5569400
       32.260900       -2.2084600        2.6324500
       32.782700       -2.0645400        2.7101900
       33.313000       -1.9529300        2.7902200
       33.851800       -1.8615400        2.8726300
       34.399300       -1.7834300        2.9574600
       34.955700       -1.7141300        3.0448000
       35.521100       -1.6504800        3.1347100
       36.095600       -1.5898300        3.2272900
       36.679400       -1.5291600        3.3225900
       37.272700       -1.4624900        3.4175500
       37.875500       -1.3999300        3.4995900
       38.488200       -1.3441400        3.5836000
       39.110700       -1.2917400        3.6696200
       39.743200       -1.2409100        3.7577100
       40.386100       -1.1908000        3.8479100
       41.039300       -1.1406800        3.9402800
       41.703100       -1.0899500        4.0348700
       42.377600       -1.0379600        4.1317200
       43.063000      -0.98405000        4.2309100
       43.759500      -0.92736300        4.3324700
       44.467300      -0.86662800        4.4364700
       45.186500      -0.79793400        4.5429700
       45.917400      -0.72007900        4.6380400
       46.660000      -0.64914900        4.7287800
       47.414700      -0.58049500        4.8212900
       48.181600      -0.51121800        4.9156200
       48.960900      -0.44037100        5.0117800
       49.752800      -0.36699600        5.1098300
       50.557600      -0.28984300        5.2098000
       51.375300      -0.20535300        5.3117200
       52.206200      -0.11375300        5.4027600
       53.050600     -0.027496300        5.4907600
       53.908700      0.057097500        5.5802000
       54.780600       0.14248000        5.6711000
       55.666700       0.22937900        5.7634700
       56.567000       0.31841300        5.8573500
       57.482000       0.41016300        5.9527600
       58.411700       0.50547200        6.0497200
       59.356400       0.60595300        6.1482600
       60.316500       0.71071100        6.2435100
       61.292100       0.81696500        6.3392100
       62.283400       0.92652600        6.4363700
       63.290800        1.0404700        6.5350200
       64.314500        1.1598100        6.6351900
       65.354700        1.2857100        6.7368900
       66.411800        1.4198300        6.8401400
       67.485900        1.5645400        6.9449900
       68.577500        1.7280400        7.0514300
       69.686700        1.9380800        7.1327600
       70.813800        2.1189200        7.1681500
       71.959100        2.2801700        7.2037200
       73.123000        2.4353800        7.2394600
       74.305700        2.5872400        7.2753700
       75.507600        2.7374600        7.3114700
       76.728900        2.8872900        7.3477500
       77.969900        3.0377800        7.3842000
       79.231000        3.1899400        7.4208400
       80.512500        3.3448700        7.4576600
       81.814700        3.5040200        7.4946500
       83.138000        3.6696300        7.5318400
       84.482700        3.8465900        7.5692100
       85.849100        4.0524400        7.5916000
       87.237700        4.2401200        7.5727800
       88.648700        4.4127000        7.5540200
       90.082500        4.5775200        7.5352900
       91.539500        4.7385500        7.5166200
       93.020100        4.8977000        7.4979900
       94.524600        5.0566300        7.4794100
       96.053500        5.2172200        7.4608800
       97.607100        5.3827200        7.4423800
       99.185800        5.5628700        7.4239500
       100.79000        5.7602700        7.3697400
       102.42000        5.9274600        7.2913600
       104.07700        6.0780600        7.2138200
       105.76000        6.2184700        7.1371000
       107.47100        6.3512300        7.0612000
       109.20900        6.4778200        6.9861000
       110.97500        6.5991900        6.9118100
       112.77000        6.7160800        6.8383000
       114.59400        6.8290500        6.7655800
       116.44800        6.9385700        6.6936200
       118.33100        7.0451000        6.6224400
       120.24500        7.1490500        6.5520200
       122.19000        7.2511100        6.4823300
       124.16600        7.3524300        6.4117100
       126.17500        7.4499500        6.3400700
       128.21500        7.5443800        6.2692500
       130.28900        7.6366400        6.1992200
       132.39700        7.7271000        6.1299700
       134.53800        7.8160800        6.0614900
       136.71400        7.9039700        5.9937700
       138.92500        7.9911700        5.9268200
       141.17200        8.0782400        5.8606100
       143.45600        8.1660500        5.7951400
       145.77600        8.2563800        5.7304000
       148.13400        8.3559500        5.6663900
       150.53000        8.4543700        5.5764400
       152.96400        8.5398000        5.4846300
       155.43900        8.6159800        5.3943400
       157.95300        8.6870100        5.3055200
       160.50700        8.7538300        5.2181700
       163.10300        8.8171300        5.1322600
       165.74200        8.8773600        5.0477700
       168.42200        8.9349000        4.9646500
       171.14600        8.9900600        4.8829200
       173.91500        9.0430900        4.8025300
       176.72700        9.0942400        4.7234600
       179.58600        9.1437400        4.6456900
       182.49100        9.1918300        4.5692000
       185.44200        9.2387700        4.4939800
       188.44200        9.2848800        4.4199900
       191.48900        9.3306500        4.3472200
       194.58700        9.3769400        4.2756400
       197.73400        9.4270000        4.2052500
       200.93200        9.4772100        4.1234400
       204.18200        9.5198900        4.0399700
       207.48500        9.5567200        3.9581800
       210.84000        9.5903000        3.8780500
       214.25100        9.6211800        3.7995400
       217.71600        9.6497800        3.7226200
       221.23700        9.6763900        3.6472600
       224.81600        9.7012300        3.5734200
       228.45200        9.7245000        3.5010800
       232.14700        9.7463800        3.4302000
       235.90200        9.7670300        3.3607600
       239.71700        9.7866000        3.2927200
       243.59500        9.8052500        3.2260600
       247.53500        9.8232000        3.1607500
       251.53800        9.8406800        3.0967600
       255.60700        9.8581200        3.0340700
       259.74100        9.8778300        2.9726500
       263.94200        9.8978900        2.9061800
       268.21100        9.9128400        2.8382400
       272.54900        9.9246000        2.7718800
       276.95700        9.9342000        2.7070800
       281.43700        9.9420600        2.6437900
       285.98900        9.9484500        2.5819800
       290.61500        9.9535600        2.5216200
       295.31500        9.9575400        2.4626700
       300.09200        9.9605000        2.4050900
       304.94500        9.9625400        2.3488700
       309.87800        9.9637600        2.2939600
       314.89000        9.9642200        2.2403300
       319.98300        9.9640200        2.1879500
       325.15800        9.9632300        2.1368000
       330.41800        9.9619500        2.0868400
       335.76200        9.9602800        2.0380500
       341.19200        9.9583800        1.9904100
       346.71100        9.9573400        1.9438800
       352.31900        9.9558800        1.8957300
       358.01700        9.9523200        1.8479800
       363.80800        9.9474300        1.8014400
       369.69200        9.9415800        1.7560700
       375.67200        9.9349200        1.7118400
       381.74800        9.9275700        1.6687300
       387.92200        9.9195800        1.6267000
       394.19700        9.9110100        1.5857300
       400.57300        9.9019100        1.5457900
       407.05200        9.8923100        1.5068600
       413.63500        9.8822300        1.4689000
       420.32600        9.8717100        1.4319100
       427.12400        9.8607600        1.3958400
       434.03200        9.8493900        1.3606900
       441.05200        9.8376200        1.3264200
       448.18600        9.8254400        1.2930100
       455.43500        9.8128700        1.2604500
       462.80200        9.7998800        1.2287000
       470.28700        9.7864700        1.1977500
       477.89400        9.7723300        1.1675900
       485.62300        9.7578600        1.1388900
       493.47800        9.7434700        1.1110800
       501.45900        9.7289800        1.0839500
       509.57000        9.7142800        1.0574400
       517.81200        9.6993200        1.0315500
       526.18700        9.6840800        1.0062900
       534.69800        9.6685300       0.98159000
       543.34600        9.6527100       0.95744400
       552.13400        9.6364400       0.93371300
       561.06500        9.6196500       0.91055800
       570.13900        9.6024300       0.88794900
       579.36100        9.5845700       0.86573500
       588.73200        9.5660500       0.84407300
       598.25400        9.5457500       0.82323700
       607.93000        9.5256600       0.80479000
       617.76300        9.5063200       0.78709300
       627.75500        9.4880300       0.76987500
       637.90800        9.4703200       0.75128400
       648.22600        9.4518600       0.73066200
       658.71100        9.4302500       0.70901600
       669.36500        9.4057900       0.68802700
       680.19100        9.3789500       0.66959000
       691.19300        9.3517600       0.65311900
       702.37200        9.3252000       0.63747000
       713.73300        9.2980700       0.62103000
       725.27700        9.2689800       0.60422700
       737.00800        9.2379800       0.58785300
       748.92800        9.2051400       0.57194300
       761.04200        9.1703700       0.55647300
       773.35100        9.1335400       0.54137000
       785.85900        9.0943600       0.52650600
       798.57000        9.0523700       0.51191500
       811.48600        9.0073000       0.49776000
       824.61100        8.9588100       0.48398500
       837.94900        8.9063900       0.47058100
       851.50200        8.8494800       0.45764600
       865.27400        8.7874200       0.44515400
       879.26900        8.7194200       0.43308100
       893.49100        8.6443200       0.42133600
       907.94300        8.5606700       0.40991000
       922.62800        8.4667000       0.39879500
       937.55100        8.3594400       0.38737500
       952.71500        8.2350400       0.37613400
       968.12400        8.0880000       0.36509000
       983.78300        7.9100800       0.35437000
       999.69500        7.6875700       0.34397200
       1015.8600        7.3953500       0.33388700
       1032.2900        6.9797000       0.32414400
       1048.9900        6.2882700       0.31468600
       1065.9600        4.3543000       0.30550500
       1070.7000      -0.86167800       0.30301200
       1070.9000      -0.85817600        4.5631500
       1083.2000        5.7758400        4.4819900
       1100.7200        7.0542900        4.3703900
       1118.5200        7.7483500        4.2615700
       1136.6100        8.2308300        4.1555100
       1155.0000        8.6010800        4.0520700
       1173.6800        8.9007600        3.9511800
       1192.6600        9.1515600        3.8528300
       1211.9500        9.3663100        3.7569200
       1231.5500        9.5531700        3.6633700
       1251.4700        9.7178000        3.5721900
       1271.7200        9.8642400        3.4832800
       1292.2900        9.9955000        3.3965800
       1313.1900        10.113900        3.3120100
       1334.4300        10.221100        3.2295500
       1356.0100        10.318600        3.1491300
       1377.9400        10.407700        3.0707600
       1400.2300        10.489400        2.9943300
       1422.8800        10.564300        2.9197700
       1445.8900        10.633300        2.8471100
       1469.2800        10.696900        2.7762500
       1493.0400        10.755600        2.7071400
       1517.1900        10.809900        2.6398100
       1541.7300        10.860200        2.5741700
       1566.6700        10.907000        2.5101700
       1592.0100        10.950400        2.4477500
       1617.7600        10.990800        2.3868900
       1643.9200        11.028600        2.3275600
       1670.5100        11.063900        2.2696700
       1697.5300        11.097000        2.2132400
       1724.9900        11.128900        2.1582400
       1752.8900        11.158800        2.1025600
       1781.2400        11.186100        2.0476500
       1810.0500        11.210700        1.9937100
       1839.3200        11.232900        1.9411900
       1869.0700        11.253300        1.8900500
       1899.3000        11.271900        1.8402500
       1930.0200        11.289000        1.7917600
       1961.2400        11.304700        1.7445600
       1992.9600        11.318900        1.6986200
       2025.2000        11.332700        1.6548000
       2057.9500        11.345900        1.6102500
       2091.2400        11.357400        1.5666400
       2125.0600        11.367600        1.5240800
       2159.4300        11.376600        1.4825400
       2194.3600        11.384700        1.4419700
       2229.8500        11.391800        1.4023600
       2265.9200        11.398100        1.3637300
       2302.5700        11.403500        1.3259700
       2339.8100        11.408000        1.2891800
       2377.6600        11.411900        1.2532900
       2416.1100        11.415100        1.2182800
       2455.1900        11.417600        1.1841400
       2494.9000        11.419600        1.1508700
       2535.2600        11.420900        1.1184200
       2576.2600        11.421700        1.0868000
       2617.9300        11.422100        1.0560000
       2660.2700        11.422000        1.0259800
       2703.3000        11.421400       0.99672200
       2747.0300        11.420400       0.96823400
       2791.4600        11.419100       0.94048500
       2836.6100        11.417300       0.91346800
       2882.4900        11.415300       0.88716300
       2929.1100        11.413000       0.86155400
       2976.4800        11.410300       0.83662400
       3024.6300        11.407400       0.81235100
       3073.5500        11.404300       0.78874600
       3123.2600        11.401000       0.76575500
       3173.7800        11.397400       0.74339500
       3225.1100        11.393700       0.72164400
       3277.2700        11.389700       0.70047600
       3330.2800        11.385600       0.67989300
       3384.1500        11.381400       0.65988300
       3438.8800        11.377100       0.64041100
       3494.5000        11.372600       0.62148800
       3551.0200        11.368000       0.60306700
       3608.4600        11.363300       0.58517600
       3666.8200        11.358600       0.56777500
       3726.1300        11.353700       0.55086700
       3786.4000        11.348800       0.53443200
       3847.6400        11.343900       0.51846100
       3909.8700        11.338900       0.50294100
       3973.1100        11.333900       0.48785900
       4037.3800        11.328800       0.47320400
       4102.6800        11.323700       0.45895200
       4169.0300        11.318600       0.44512700
       4236.4600        11.313500       0.43168000
       4304.9800        11.308300       0.41864000
       4374.6200        11.303200       0.40595300
       4445.3700        11.298100       0.39363700
       4517.2700        11.293000       0.38167600
       4590.3300        11.287900       0.37006100
       4664.5800        11.282800       0.35878900
