;  Atomic scattering factors for Nb.
;   
;  Concatenation of data from CXRO <http://www-cxro.lbl.gov>
;  and LLNL <http://www-phys.llnl.gov/V_Div/scattering/asf.html>
;  
;  E (eV) f1 f2
;---------------
       10.000000       -9999.0000        2.5668500
       10.161700       -9999.0000        2.6620900
       10.326100       -9999.0000        2.7608700
       10.493100       -9999.0000        2.8633100
       10.662800       -9999.0000        2.9695600
       10.835300       -9999.0000        3.0797400
       11.010600       -9999.0000        3.1940100
       11.188600       -9999.0000        3.3125200
       11.369600       -9999.0000        3.4232600
       11.553500       -9999.0000        3.5120000
       11.740400       -9999.0000        3.6030500
       11.930300       -9999.0000        3.6964500
       12.123200       -9999.0000        3.7922800
       12.319300       -9999.0000        3.8905900
       12.518600       -9999.0000        3.9914500
       12.721000       -9999.0000        4.0949200
       12.926800       -9999.0000        4.1973200
       13.135900       -9999.0000        4.2957800
       13.348300       -9999.0000        4.3965400
       13.564200       -9999.0000        4.4996700
       13.783600       -9999.0000        4.6052100
       14.006600       -9999.0000        4.7132300
       14.233100       -9999.0000        4.8237900
       14.463300       -9999.0000        4.9220400
       14.697300       -9999.0000        4.9954000
       14.935000       -9999.0000        5.0698500
       15.176500       -9999.0000        5.1454200
       15.422000       -9999.0000        5.2221100
       15.671400       -9999.0000        5.2999400
       15.924900       -9999.0000        5.3614400
       16.182500       -9999.0000        5.4080300
       16.444200       -9999.0000        5.4550200
       16.710200       -9999.0000        5.5024300
       16.980500       -9999.0000        5.5502400
       17.255100       -9999.0000        5.5262900
       17.534200       -9999.0000        5.4998500
       17.817800       -9999.0000        5.4735300
       18.106000       -9999.0000        5.4473500
       18.398900       -9999.0000        5.4212900
       18.696400       -9999.0000        5.3593400
       18.998800       -9999.0000        5.2240200
       19.306100       -9999.0000        5.0921200
       19.618400       -9999.0000        4.9635500
       19.935700       -9999.0000        4.8382300
       20.258200       -9999.0000        4.7160700
       20.585800       -9999.0000        4.5713200
       20.918800       -9999.0000        4.4263100
       21.257100       -9999.0000        4.2859000
       21.600900       -9999.0000        4.1499400
       21.950300       -9999.0000        4.0183000
       22.305300       -9999.0000        3.8908300
       22.666100       -9999.0000        3.7836500
       23.032700       -9999.0000        3.6835800
       23.405300       -9999.0000        3.5861500
       23.783800       -9999.0000        3.4913100
       24.168500       -9999.0000        3.3989600
       24.559400       -9999.0000        3.3211400
       24.956600       -9999.0000        3.2692300
       25.360300       -9999.0000        3.2181400
       25.770500       -9999.0000        3.1678500
       26.187300       -9999.0000        3.1183500
       26.610900       -9999.0000        3.0955200
       27.041300       -9999.0000        3.0891300
       27.478600       -9999.0000        3.0827600
       27.923100       -9999.0000        3.0764000
       28.374700       -9999.0000        3.0893500
       28.833700       -9999.0000        3.1604400
       29.300000        3.6558900        3.2331600
       29.773900        3.2842100        3.3585800
       30.255500        2.9411300        3.5608900
       30.744900        2.5833300        3.7753700
       31.242100        2.1506300        4.0613500
       31.747500        1.7752800        4.4718100
       32.260900        1.4427600        4.9237600
       32.782700        1.1337500        5.4213800
       33.313000       0.84537400        5.9692800
       33.851800       0.57492000        6.5725600
       34.399300       0.31284600        7.2368200
       34.955700      0.030906000        8.0464300
       35.521100      -0.11668500        9.0191700
       36.095600      -0.10768600        10.109500
       36.679400       0.14630100        11.303700
       37.272700       0.57044500        12.407500
       37.875500        1.2002100        13.619200
       38.488200        2.3545800        14.726600
       39.110700        3.5258300        15.300200
       39.743200        4.7855400        15.654700
       40.386100        5.8859400        15.742000
       41.039300        6.7842900        15.727800
       41.703100        7.5770600        15.713500
       42.377600        8.3183100        15.699300
       43.063000        9.0304200        15.685000
       43.759500        9.7307100        15.670800
       44.467300        10.435700        15.656600
       45.186500        11.173200        15.642400
       45.917400        12.002800        15.628300
       46.660000        12.912600        15.367400
       47.414700        13.659900        15.013800
       48.181600        14.347300        14.668400
       48.960900        15.036700        14.330900
       49.752800        15.841700        13.937100
       50.557600        16.504800        13.217100
       51.375300        16.984100        12.534300
       52.206200        17.360500        11.886800
       53.050600        17.694000        11.259000
       53.908700        17.944900        10.599200
       54.780600        18.117900        9.9780300
       55.666700        18.235900        9.3932600
       56.567000        18.313100        8.8427800
       57.482000        18.357500        8.3245400
       58.411700        18.375600        7.8366900
       59.356400        18.372900        7.3774400
       60.316500        18.355000        6.9450800
       61.292100        18.329700        6.5380600
       62.283400        18.316600        6.1291100
       63.290800        18.254800        5.7145200
       64.314500        18.165500        5.3279500
       65.354700        18.058700        4.9675500
       66.411800        17.939400        4.6315300
       67.485900        17.810800        4.3182200
       68.577500        17.675600        4.0261200
       69.686700        17.536000        3.7537700
       70.813800        17.395300        3.4998500
       71.959100        17.261600        3.2631000
       73.123000        17.121600        3.0137800
       74.305700        16.962900        2.7807100
       75.507600        16.794900        2.5656700
       76.728900        16.621200        2.3672600
       77.969900        16.442700        2.1841900
       79.231000        16.257600        2.0152800
       80.512500        16.070700        1.8709800
       81.814700        15.890200        1.7397600
       83.138000        15.711600        1.6177300
       84.482700        15.532800        1.5042700
       85.849100        15.350400        1.3987700
       87.237700        15.154300        1.3006600
       88.648700        14.961100        1.2461300
       90.082500        14.788500        1.1989000
       91.539500        14.624300        1.1534600
       93.020100        14.462500        1.1097500
       94.524600        14.295900        1.0719400
       96.053500        14.133500        1.0447700
       97.607100        13.963700        1.0182900
       99.185800        13.793600        1.0277900
       100.79000        13.642400        1.0443900
       102.42000        13.499700        1.0643100
       104.07700        13.367800        1.0897200
       105.76000        13.243700        1.1157400
       107.47100        13.123000        1.1423800
       109.20900        13.007500        1.1762200
       110.97500        12.898700        1.2111800
       112.77000        12.795600        1.2471800
       114.59400        12.698400        1.2842500
       116.44800        12.607200        1.3175900
       118.33100        12.515400        1.3487500
       120.24500        12.423700        1.3806500
       122.19000        12.332900        1.4132900
       124.16600        12.243000        1.4467100
       126.17500        12.154000        1.4809200
       128.21500        12.065700        1.5159400
       130.28900        11.978400        1.5517900
       132.39700        11.893800        1.5884900
       134.53800        11.808900        1.6201000
       136.71400        11.720800        1.6517000
       138.92500        11.630500        1.6839200
       141.17200        11.538400        1.7167600
       143.45600        11.444300        1.7502500
       145.77600        11.348300        1.7843900
       148.13400        11.250700        1.8191900
       150.53000        11.154400        1.8535200
       152.96400        11.052300        1.8810600
       155.43900        10.942700        1.9090100
       157.95300        10.827000        1.9373700
       160.50700        10.705000        1.9661600
       163.10300        10.577300        1.9952100
       165.74200        10.440600        2.0206500
       168.42200        10.292900        2.0462900
       171.14600        10.132900        2.0721900
       173.91500        9.9588700        2.0984300
       176.72700        9.7658900        2.1249900
       179.58600        9.5539700        2.1602300
       182.49100        9.3209700        2.1982800
       185.44200        9.0580600        2.2526800
       188.44200        8.7837100        2.3243500
       191.48900        8.4804500        2.3983000
       194.58700        8.1365900        2.5001300
       197.73400        7.7728300        2.6496200
       200.93200        7.3800300        2.8091100
       204.18200        6.9654600        3.0321900
       207.48500        6.5253100        3.2636000
       210.84000        5.9824100        3.5126700
       214.25100        5.4033000        3.9931800
       217.71600        4.8214800        4.5709600
       221.23700        4.3180300        5.3309900
       224.81600        3.9198600        6.2188900
       228.45200        3.7378700        7.2576800
       232.14700        3.8076400        8.1717400
       235.90200        3.8394600        8.9842700
       239.71700        3.9112700        9.8776100
       243.59500        4.2127100        10.825100
       247.53500        4.5616300        11.592300
       251.53800        5.0342500        12.413900
       255.60700        5.6151500        12.985700
       259.74100        6.0908100        13.452900
       263.94200        6.5684500        13.937000
       268.21100        7.0238500        14.308400
       272.54900        7.4448500        14.689200
       276.95700        7.8580100        15.080200
       281.43700        8.3090600        15.481500
       285.98900        8.7744600        15.797500
       290.61500        9.2128000        16.100100
       295.31500        9.6381100        16.408500
       300.09200        10.075000        16.722800
       304.94500        10.570800        17.017400
       309.87800        11.047300        17.258100
       314.89000        11.510700        17.502200
       319.98300        11.993500        17.749700
       325.15800        12.578400        18.000700
       330.41800        13.195100        18.046500
       335.76200        13.662800        17.994800
       341.19200        13.995100        17.943200
       346.71100        14.254300        18.041200
       352.31900        14.558600        18.196800
       358.01700        14.906000        18.353800
       363.80800        15.267200        18.512200
       369.69200        15.641300        18.671900
       375.67200        16.029100        18.833000
       381.74800        16.433300        18.995500
       387.92200        16.859200        19.159400
       394.19700        17.320600        19.324700
       400.57300        17.873400        19.449400
       407.05200        18.371000        19.455200
       413.63500        18.826500        19.461000
       420.32600        19.263800        19.466900
       427.12400        19.691700        19.472700
       434.03200        20.115300        19.478600
       441.05200        20.539500        19.484400
       448.18600        20.970700        19.490300
       455.43500        21.428000        19.496100
       462.80200        21.898500        19.436000
       470.28700        22.335900        19.348600
       477.89400        22.743800        19.261500
       485.62300        23.139900        19.174900
       493.47800        23.528100        19.088600
       501.45900        23.911500        19.002700
       509.57000        24.292900        18.917200
       517.81200        24.675500        18.832100
       526.18700        25.063700        18.747400
       534.69800        25.461000        18.663000
       543.34600        25.937400        18.567100
       552.13400        26.375900        18.344800
       561.06500        26.747400        18.125200
       570.13900        27.091500        17.908200
       579.36100        27.415100        17.693800
       588.73200        27.722300        17.482000
       598.25400        28.015800        17.272700
       607.93000        28.297400        17.065900
       617.76300        28.568600        16.861600
       627.75500        28.830700        16.659700
       637.90800        29.084600        16.460200
       648.22600        29.331200        16.263200
       658.71100        29.571500        16.068500
       669.36500        29.806100        15.876100
       680.19100        30.035900        15.686000
       691.19300        30.261800        15.498200
       702.37200        30.485000        15.312700
       713.73300        30.706800        15.129400
       725.27700        30.929900        14.948300
       737.00800        31.165400        14.769300
       748.92800        31.394600        14.557000
       761.04200        31.608200        14.344200
       773.35100        31.809900        14.134500
       785.85900        32.006100        13.927900
       798.57000        32.199400        13.724300
       811.48600        32.392600        13.523600
       824.61100        32.590500        13.326000
       837.94900        32.803300        13.131100
       851.50200        33.066800        12.891100
       865.27400        33.280200        12.574600
       879.26900        33.427800        12.265900
       893.49100        33.544200        11.964700
       907.94300        33.636100        11.680500
       922.62800        33.703600        11.405900
       937.55100        33.756400        11.166800
       952.71500        33.814300        10.946200
       968.12400        33.877900        10.729400
       983.78300        33.939600        10.517100
       999.69500        33.999200        10.308400
       1015.8600        34.056800        10.103400
       1032.2900        34.111700        9.8989300
       1048.9900        34.162900        9.6952700
       1065.9600        34.206600        9.4922800
       1083.2000        34.243900        9.2935100
       1100.7200        34.275900        9.0989100
       1118.5200        34.303100        8.9084000
       1136.6100        34.326000        8.7218900
       1155.0000        34.344700        8.5393400
       1173.6800        34.359800        8.3607100
       1192.6600        34.371200        8.1856200
       1211.9500        34.379200        8.0142000
       1231.5500        34.384600        7.8463700
       1251.4700        34.387500        7.6803700
       1271.7200        34.387200        7.5158400
       1292.2900        34.381300        7.3523400
       1313.1900        34.370300        7.1924700
       1334.4300        34.355000        7.0361000
       1356.0100        34.335700        6.8831300
       1377.9400        34.312600        6.7334900
       1400.2300        34.286000        6.5871100
       1422.8800        34.256200        6.4439000
       1445.8900        34.223500        6.3036600
       1469.2800        34.189100        6.1650600
       1493.0400        34.153400        6.0274000
       1517.1900        34.110600        5.8832000
       1541.7300        34.058400        5.7411600
       1566.6700        33.997700        5.6025900
       1592.0100        33.929900        5.4675700
       1617.7600        33.855200        5.3357500
       1643.9200        33.773300        5.2069400
       1670.5100        33.683800        5.0812400
       1697.5300        33.586400        4.9586500
       1724.9900        33.479600        4.8391600
       1752.8900        33.364100        4.7247000
       1781.2400        33.240200        4.6136500
       1810.0500        33.106600        4.5056500
       1839.3200        32.962300        4.4003900
       1869.0700        32.805700        4.2976000
       1899.3000        32.634800        4.1971600
       1930.0200        32.447500        4.0990600
       1961.2400        32.241200        4.0032600
       1992.9600        32.012500        3.9096900
       2025.2000        31.755600        3.8180900
       2057.9500        31.466500        3.7313000
       2091.2400        31.138700        3.6470700
       2125.0600        30.761000        3.5653800
       2159.4300        30.317500        3.4860600
       2194.3600        29.784000        3.4092500
       2229.8500        29.119900        3.3347500
       2265.9200        28.247900        3.2625000
       2302.5700        26.991600        3.1924800
       2339.8100        24.737900        3.1246300
       2370.4000        9.5028400        3.0707700
       2370.6000        9.5048200        11.384600
       2377.6600        20.717600        11.332800
       2416.1100        25.080200        11.057000
       2455.1900        24.766900        10.787600
       2464.6000        19.206200        10.724400
       2464.8000        19.213100        14.778100
       2494.9000        27.402300        14.532300
       2535.2600        29.283700        14.213600
       2576.2600        30.437600        13.901900
       2617.9300        31.216200        13.597300
       2660.2700        31.623800        13.299000
       2697.6000        28.830400        13.045200
       2697.8000        28.834100        14.870000
       2703.3000        31.265300        14.827600
       2747.0300        33.171100        14.498200
       2791.4600        34.100500        14.175100
       2836.6100        34.821000        13.856500
       2882.4900        35.426900        13.542600
       2929.1100        35.953900        13.233000
       2976.4800        36.420400        12.928100
       3024.6300        36.838500        12.628000
       3073.5500        37.216100        12.332700
       3123.2600        37.559200        12.042300
       3173.7800        37.872200        11.756900
       3225.1100        38.158800        11.476700
       3277.2700        38.421800        11.201300
       3330.2800        38.663700        10.931100
       3384.1500        38.886500        10.666000
       3438.8800        39.092000        10.406000
       3494.5000        39.282000        10.150800
       3551.0200        39.457200        9.9002000
       3608.4600        39.618500        9.6548400
       3666.8200        39.767400        9.4147700
       3726.1300        39.905300        9.1798700
       3786.4000        40.032900        8.9494100
       3847.6400        40.150200        8.7236000
       3909.8700        40.258200        8.5028300
       3973.1100        40.357700        8.2868400
       4037.3800        40.449200        8.0755300
       4102.6800        40.533300        7.8688700
       4169.0300        40.610300        7.6667800
       4236.4600        40.680800        7.4692100
       4304.9800        40.745200        7.2761900
       4374.6200        40.803700        7.0874400
       4445.3700        40.856900        6.9031100
       4517.2700        40.905000        6.7230400
