;  Atomic scattering factors for Nd.
;   
;  Concatenation of data from CXRO <http://www-cxro.lbl.gov>
;  and LLNL <http://www-phys.llnl.gov/V_Div/scattering/asf.html>
;  
;  E (eV) f1 f2
;---------------
       10.000000       -9999.0000       0.24448400
       10.161700       -9999.0000       0.25176600
       10.326100       -9999.0000       0.25926400
       10.493100       -9999.0000       0.26698500
       10.662800       -9999.0000       0.27493600
       10.835300       -9999.0000       0.28312400
       11.010600       -9999.0000       0.29155600
       11.188600       -9999.0000       0.30023900
       11.369600       -9999.0000       0.30918100
       11.553500       -9999.0000       0.31838900
       11.740400       -9999.0000       0.32787200
       11.930300       -9999.0000       0.33763600
       12.123200       -9999.0000       0.34769200
       12.319300       -9999.0000       0.35717700
       12.518600       -9999.0000       0.36620700
       12.721000       -9999.0000       0.37546600
       12.926800       -9999.0000       0.38495900
       13.135900       -9999.0000       0.39469200
       13.348300       -9999.0000       0.40467100
       13.564200       -9999.0000       0.41490300
       13.783600       -9999.0000       0.42429000
       14.006600       -9999.0000       0.43380300
       14.233100       -9999.0000       0.44352900
       14.463300       -9999.0000       0.45347200
       14.697300       -9999.0000       0.46364000
       14.935000       -9999.0000       0.47403400
       15.176500       -9999.0000       0.48548700
       15.422000       -9999.0000       0.49813300
       15.671400       -9999.0000       0.51110700
       15.924900       -9999.0000       0.52442000
       16.182500       -9999.0000       0.53807900
       16.444200       -9999.0000       0.55209400
       16.710200       -9999.0000       0.56647500
       16.980500       -9999.0000       0.58060600
       17.255100       -9999.0000       0.59476800
       17.534200       -9999.0000       0.60927600
       17.817800       -9999.0000       0.62413700
       18.106000       -9999.0000       0.64668400
       18.398900       -9999.0000       0.67101300
       18.696400       -9999.0000       0.70924900
       18.998800       -9999.0000       0.75804000
       19.306100       -9999.0000       0.84845300
       19.618400       -9999.0000        1.0674400
       19.935700       -9999.0000        1.2733200
       20.258200       -9999.0000        1.4637700
       20.585800       -9999.0000        1.6468000
       20.918800       -9999.0000        1.8123700
       21.257100       -9999.0000        1.9945900
       21.600900       -9999.0000        2.3352700
       21.950300       -9999.0000        3.0461200
       22.305300       -9999.0000        3.4901100
       22.666100       -9999.0000        4.1414200
       23.032700       -9999.0000        5.1760500
       23.405300       -9999.0000        6.1611400
       23.783800       -9999.0000        7.1592800
       24.168500       -9999.0000        7.8515800
       24.559400       -9999.0000        8.6108300
       24.956600       -9999.0000        9.8233400
       25.360300       -9999.0000        11.046400
       25.770500       -9999.0000        11.722400
       26.187300       -9999.0000        12.336500
       26.610900       -9999.0000        12.804200
       27.041300       -9999.0000        13.240400
       27.478600       -9999.0000        13.319000
       27.923100       -9999.0000        13.398100
       28.374700       -9999.0000        13.342000
       28.833700       -9999.0000        12.894300
       29.300000        9.3860000        12.461500
       29.773900        9.9214700        12.019600
       30.255500        10.349300        11.589400
       30.744900        10.692200        11.177900
       31.242100        10.961600        10.782600
       31.747500        11.139600        10.401300
       32.260900        11.259500        10.148500
       32.782700        11.408400        9.9206500
       33.313000        11.551500        9.6978900
       33.851800        11.662300        9.4873400
       34.399300        11.773500        9.3362900
       34.955700        11.900800        9.1876500
       35.521100        12.034400        9.0413800
       36.095600        12.172300        8.8865700
       36.679400        12.296000        8.7267600
       37.272700        12.411500        8.5698300
       37.875500        12.521400        8.4125000
       38.488200        12.626600        8.2562600
       39.110700        12.740800        8.0888300
       39.743200        12.821400        7.8908700
       40.386100        12.868500        7.6977400
       41.039300        12.884900        7.5093400
       41.703100        12.871300        7.3478000
       42.377600        12.843100        7.1979500
       43.063000        12.767300        7.0511700
       43.759500        12.694400        7.0290000
       44.467300        12.671800        7.0099800
       45.186500        12.672400        6.9910100
       45.917400        12.690600        6.9721100
       46.660000        12.720900        6.9378500
       47.414700        12.746000        6.8979800
       48.181600        12.769500        6.8583400
       48.960900        12.792200        6.8189300
       49.752800        12.813600        6.7797400
       50.557600        12.833000        6.7407800
       51.375300        12.848600        6.7050900
       52.206200        12.866200        6.6727100
       53.050600        12.884100        6.6404900
       53.908700        12.901500        6.6084200
       54.780600        12.918000        6.5763300
       55.666700        12.932800        6.5439500
       56.567000        12.945800        6.5117400
       57.482000        12.956700        6.4796800
       58.411700        12.965400        6.4477800
       59.356400        12.971600        6.4160500
       60.316500        12.975300        6.3844600
       61.292100        12.976100        6.3530300
       62.283400        12.973800        6.3217600
       63.290800        12.968400        6.2906400
       64.314500        12.959400        6.2596700
       65.354700        12.946800        6.2288600
       66.411800        12.930200        6.1982000
       67.485900        12.909400        6.1676900
       68.577500        12.884000        6.1373200
       69.686700        12.853700        6.1071100
       70.813800        12.818400        6.0775000
       71.959100        12.777900        6.0480600
       73.123000        12.731700        6.0187700
       74.305700        12.679600        5.9896200
       75.507600        12.620900        5.9606200
       76.728900        12.555500        5.9317600
       77.969900        12.482900        5.9030300
       79.231000        12.402900        5.8744400
       80.512500        12.315800        5.8459900
       81.814700        12.223700        5.8176800
       83.138000        12.133100        5.7759300
       84.482700        12.013800        5.7185400
       85.849100        11.871300        5.6617300
       87.237700        11.707500        5.6054800
       88.648700        11.521800        5.5497900
       90.082500        11.312800        5.4946400
       91.539500        11.080400        5.4400500
       93.020100        10.832200        5.3789900
       94.524600        10.531400        5.2912500
       96.053500        10.155200        5.2121600
       97.607100        9.7415900        5.1742100
       99.185800        9.2891700        5.1365400
       100.79000        8.7753500        5.1016900
       102.42000        8.1935700        5.0756200
       104.07700        7.5231900        5.0496900
       105.76000        6.7296900        5.0239000
       107.47100        5.7739300        5.0194600
       109.20900        4.5849800        5.0224600
       110.97500        2.8331000        5.0254600
       112.77000       0.85760000        6.3499400
       114.59400      0.034953000        7.4734900
       116.44800      -0.67578600        7.6935700
       118.33100       -4.0439800        7.1241600
       120.24500       -10.208200        10.002800
       122.19000       -14.352900        16.517000
       124.16600       -15.915200        25.872900
       126.17500       -11.685500        35.718000
       128.21500       -6.2616100        40.446900
       130.28900       0.38213800        45.801800
       132.39700        8.6697000        47.349300
       134.53800        16.275500        46.223100
       136.71400        21.628200        43.885100
       138.92500        26.187300        40.919500
       141.17200        29.200100        37.513400
       143.45600        31.265300        34.390600
       145.77600        32.692000        31.527900
       148.13400        33.652800        28.976200
       150.53000        34.341400        26.674400
       152.96400        34.793000        24.555400
       155.43900        35.042800        22.604800
       157.95300        35.108400        20.809200
       160.50700        35.014300        19.222800
       163.10300        34.864800        17.799900
       165.74200        34.658700        16.482300
       168.42200        34.378200        15.262200
       171.14600        34.013800        14.132500
       173.91500        33.521900        13.154400
       176.72700        33.084400        12.351600
       179.58600        32.652300        11.597800
       182.49100        32.181900        10.890000
       185.44200        31.575100        10.289200
       188.44200        31.083800        9.9433400
       191.48900        30.680400        9.6090900
       194.58700        30.318300        9.2860700
       197.73400        29.969700        8.9739100
       200.93200        29.616300        8.6722500
       204.18200        29.225700        8.3807200
       207.48500        28.726600        8.2202500
       210.84000        28.351400        8.2032000
       214.25100        28.078900        8.1861900
       217.71600        27.848100        8.1692100
       221.23700        27.648600        8.1522700
       224.81600        27.473100        8.1353600
       228.45200        27.316500        8.1184900
       232.14700        27.174800        8.1016500
       235.90200        27.044800        8.0848500
       239.71700        26.923700        8.0680800
       243.59500        26.808800        8.0513400
       247.53500        26.697200        8.0346500
       251.53800        26.585600        8.0179900
       255.60700        26.468600        8.0013600
       259.74100        26.309600        7.9885600
       263.94200        26.170700        8.0599300
       268.21100        26.071300        8.1319200
       272.54900        25.991000        8.2045700
       276.95700        25.924000        8.2778600
       281.43700        25.867200        8.3518000
       285.98900        25.817900        8.4264100
       290.61500        25.773400        8.5016800
       295.31500        25.719800        8.5776200
       300.09200        25.671800        8.6881100
       304.94500        25.649800        8.8096000
       309.87800        25.646000        8.9327900
       314.89000        25.657300        9.0577100
       319.98300        25.683000        9.1843700
       325.15800        25.723300        9.3128000
       330.41800        25.780000        9.4430300
       335.76200        25.857200        9.5750800
       341.19200        25.975800        9.6964900
       346.71100        26.086200        9.7742700
       352.31900        26.191900        9.8526600
       358.01700        26.302700        9.9316900
       363.80800        26.428100        10.011300
       369.69200        26.596700        10.060400
       375.67200        26.736900        10.059900
       381.74800        26.846800        10.059400
       387.92200        26.946300        10.058900
       394.19700        27.037400        10.058400
       400.57300        27.121000        10.057800
       407.05200        27.197000        10.057300
       413.63500        27.263400        10.056800
       420.32600        27.300500        10.071800
       427.12400        27.354600        10.119700
       434.03200        27.429000        10.167800
       441.05200        27.512100        10.216200
       448.18600        27.604200        10.264700
       455.43500        27.706200        10.313600
       462.80200        27.845600        10.360800
       470.28700        27.976300        10.349100
       477.89400        28.082900        10.337500
       485.62300        28.180200        10.325800
       493.47800        28.271500        10.314200
       501.45900        28.358300        10.302500
       509.57000        28.441600        10.290900
       517.81200        28.522200        10.279400
       526.18700        28.601000        10.267800
       534.69800        28.678700        10.256200
       543.34600        28.764200        10.243900
       552.13400        28.843500        10.213800
       561.06500        28.912100        10.183800
       570.13900        28.975200        10.153800
       579.36100        29.034100        10.123900
       588.73200        29.089900        10.094200
       598.25400        29.144100        10.064500
       607.93000        29.198800        10.034900
       617.76300        29.262900        10.005300
       627.75500        29.354100        9.9532200
       637.90800        29.408700        9.8465800
       648.22600        29.430100        9.7410900
       658.71100        29.429900        9.6367300
       669.36500        29.411400        9.5334800
       680.19100        29.376300        9.4313500
       691.19300        29.325500        9.3303100
       702.37200        29.263600        9.2303400
       713.73300        29.196200        9.1200400
       725.27700        29.093700        8.9865900
       737.00800        28.956500        8.8551000
       748.92800        28.788000        8.7255300
       761.04200        28.587300        8.5978700
       773.35100        28.352000        8.4720600
       785.85900        28.078500        8.3481000
       798.57000        27.761300        8.2259500
       811.48600        27.390700        8.1055900
       824.61100        26.961800        8.0024400
       837.94900        26.478000        7.9094300
       851.50200        25.926300        7.8161000
       865.27400        25.282900        7.7221300
       879.26900        24.519100        7.6277500
       893.49100        23.596300        7.5347000
       907.94300        22.453300        7.4427300
       922.62800        20.984700        7.3518200
       937.55100        18.985300        7.2619000
       952.71500        15.966800        7.1732000
       968.12400        10.146100        7.0856700
       980.30000       -25.827300        7.0182300
       980.50000       -25.817400        30.721900
       983.78300       0.85930400        30.655400
       999.69500        14.348800        30.338500
       1015.8600        19.216300        30.024900
       1032.2900        22.324100        29.714400
       1048.9900        24.636800        29.402600
       1065.9600        26.484300        29.089400
       1083.2000        28.023200        28.779100
       1100.7200        29.341900        28.472300
       1118.5200        30.492700        28.168700
       1136.6100        31.509100        27.868400
       1155.0000        32.412900        27.571300
       1173.6800        33.217800        27.277300
       1192.6600        33.930800        26.986500
       1211.9500        34.556000        26.698800
       1231.5500        35.025300        26.414100
       1251.4700        35.404400        26.259600
       1271.7200        35.700000        26.246000
       1292.2900        36.078600        26.406600
       1313.1900        36.579200        26.568500
       1334.4300        37.121900        26.731300
       1356.0100        37.702100        26.895100
       1377.9400        38.318800        27.059800
       1400.2300        38.975200        27.225500
       1422.8800        39.678600        27.392500
       1445.8900        40.468200        27.560200
       1469.2800        41.342600        27.670300
       1493.0400        42.405600        27.691000
       1517.1900        43.393600        27.335500
       1541.7300        44.131100        26.932700
       1566.6700        44.591000        26.535500
       1592.0100        45.224200        26.685400
       1617.7600        46.279700        26.649600
       1643.9200        47.211400        26.092700
       1670.5100        47.930800        25.547600
       1697.5300        48.555000        25.013900
       1724.9900        49.117900        24.491100
       1752.8900        49.629800        23.968000
       1781.2400        50.095500        23.452400
       1810.0500        50.520100        22.945400
       1839.3200        50.910100        22.449100
       1869.0700        51.270100        21.963600
       1899.3000        51.603800        21.488800
       1930.0200        51.913900        21.024000
       1961.2400        52.203200        20.569200
       1992.9600        52.470000        20.124300
       2025.2000        52.726300        19.697200
       2057.9500        52.969600        19.264500
       2091.2400        53.193200        18.839300
       2125.0600        53.399900        18.423000
       2159.4300        53.592000        18.014500
       2194.3600        53.770400        17.614200
       2229.8500        53.935900        17.221500
       2265.9200        54.089200        16.836800
       2302.5700        54.231100        16.459800
       2339.8100        54.362500        16.090700
       2377.6600        54.483900        15.728600
       2416.1100        54.595100        15.373900
       2455.1900        54.697400        15.027000
       2494.9000        54.790900        14.687000
       2535.2600        54.876500        14.354600
       2576.2600        54.954500        14.028600
       2617.9300        55.024900        13.709700
       2660.2700        55.088300        13.397200
       2703.3000        55.145000        13.091600
       2747.0300        55.195100        12.792200
       2791.4600        55.239100        12.499400
       2836.6100        55.277200        12.212800
       2882.4900        55.309600        11.932400
       2929.1100        55.336500        11.658000
       2976.4800        55.358300        11.389800
       3024.6300        55.375100        11.127100
       3073.5500        55.387100        10.870300
       3123.2600        55.394600        10.619100
       3173.7800        55.397400        10.373000
       3225.1100        55.395700        10.132500
       3277.2700        55.389700        9.8973400
       3330.2800        55.379600        9.6673000
       3384.1500        55.365400        9.4422700
       3438.8800        55.347100        9.2222900
       3494.5000        55.324900        9.0071100
       3551.0200        55.298700        8.7967200
       3608.4600        55.268700        8.5909400
       3666.8200        55.234800        8.3897200
       3726.1300        55.196900        8.1930300
       3786.4000        55.155200        8.0005700
       3847.6400        55.109500        7.8124600
       3909.8700        55.059600        7.6285200
       3973.1100        55.005700        7.4487500
       4037.3800        54.947600        7.2728600
       4102.6800        54.885000        7.1009200
       4169.0300        54.817800        6.9328200
       4236.4600        54.745800        6.7684500
       4304.9800        54.668700        6.6078100
       4374.6200        54.586300        6.4506800
       4445.3700        54.498100        6.2970900
       4517.2700        54.403600        6.1468300
       4590.3300        54.302400        6.0000200
       4664.5800        54.193900        5.8564200
       4740.0300        54.077100        5.7160800
       4816.6900        53.951500        5.5788600
