;  Atomic scattering factors for Os.
;   
;  Concatenation of data from CXRO <http://www-cxro.lbl.gov>
;  and LLNL <http://www-phys.llnl.gov/V_Div/scattering/asf.html>
;  
;  E (eV) f1 f2
;---------------
       10.000000       -9999.0000        1.8811700
       10.161700       -9999.0000        1.9378900
       10.326100       -9999.0000        1.9963200
       10.493100       -9999.0000        2.0565200
       10.662800       -9999.0000        2.1303200
       10.835300       -9999.0000        2.2081200
       11.010600       -9999.0000        2.2887700
       11.188600       -9999.0000        2.3723700
       11.369600       -9999.0000        2.4579600
       11.553500       -9999.0000        2.5375500
       11.740400       -9999.0000        2.6197200
       11.930300       -9999.0000        2.7045500
       12.123200       -9999.0000        2.7926500
       12.319300       -9999.0000        2.8876400
       12.518600       -9999.0000        2.9858600
       12.721000       -9999.0000        3.0874200
       12.926800       -9999.0000        3.1893800
       13.135900       -9999.0000        3.2735200
       13.348300       -9999.0000        3.3598900
       13.564200       -9999.0000        3.4485400
       13.783600       -9999.0000        3.5395200
       14.006600       -9999.0000        3.6329100
       14.233100       -9999.0000        3.7287600
       14.463300       -9999.0000        3.8580300
       14.697300       -9999.0000        3.9960500
       14.935000       -9999.0000        4.1390200
       15.176500       -9999.0000        4.2870900
       15.422000       -9999.0000        4.4404700
       15.671400       -9999.0000        4.5993300
       15.924900       -9999.0000        4.7468300
       16.182500       -9999.0000        4.8858300
       16.444200       -9999.0000        5.0289000
       16.710200       -9999.0000        5.1761500
       16.980500       -9999.0000        5.3277100
       17.255100       -9999.0000        5.4837200
       17.534200       -9999.0000        5.6498100
       17.817800       -9999.0000        5.8234200
       18.106000       -9999.0000        6.0023800
       18.398900       -9999.0000        6.1868300
       18.696400       -9999.0000        6.3769600
       18.998800       -9999.0000        6.5729200
       19.306100       -9999.0000        6.7724000
       19.618400       -9999.0000        6.9311600
       19.935700       -9999.0000        7.0936400
       20.258200       -9999.0000        7.2599300
       20.585800       -9999.0000        7.4301200
       20.918800       -9999.0000        7.6042900
       21.257100       -9999.0000        7.7825500
       21.600900       -9999.0000        7.9065700
       21.950300       -9999.0000        8.0320600
       22.305300       -9999.0000        8.1595400
       22.666100       -9999.0000        8.2890500
       23.032700       -9999.0000        8.4206200
       23.405300       -9999.0000        8.5474700
       23.783800       -9999.0000        8.6100300
       24.168500       -9999.0000        8.6730500
       24.559400       -9999.0000        8.7365300
       24.956600       -9999.0000        8.8004700
       25.360300       -9999.0000        8.8093200
       25.770500       -9999.0000        8.7717900
       26.187300       -9999.0000        8.7344200
       26.610900       -9999.0000        8.6972100
       27.041300       -9999.0000        8.6601600
       27.478600       -9999.0000        8.6179600
       27.923100       -9999.0000        8.5212600
       28.374700       -9999.0000        8.4256500
       28.833700       -9999.0000        8.3311100
       29.300000        8.3001100        8.2376400
       29.773900        8.4647300        8.1452100
       30.255500        8.6379600        8.0538200
       30.744900        8.8253300        7.9140000
       31.242100        8.9648600        7.7519000
       31.747500        9.0792000        7.5931400
       32.260900        9.1766600        7.4376200
       32.782700        9.2631500        7.2852900
       33.313000        9.3459900        7.1354900
       33.851800        9.4161600        6.9655700
       34.399300        9.4687000        6.7996900
       34.955700        9.5134000        6.6377600
       35.521100        9.5591900        6.4796900
       36.095600        9.6471300        6.3253800
       36.679400        9.8385000        6.0132400
       37.272700        9.8154200        5.5914400
       37.875500        9.6776000        5.1992500
       38.488200        9.4766600        4.8028300
       39.110700        9.1638600        4.4143500
       39.743200        8.7307800        4.0207800
       40.386100        8.0579500        3.8191800
       41.039300        7.4719900        3.7615000
       41.703100        6.8265900        3.7917800
       42.377600        6.2216200        3.9069000
       43.063000        5.5232300        4.0829500
       43.759500        4.8615100        4.4667300
       44.467300        4.2030100        4.9506300
       45.186500        3.6301200        5.5580200
       45.917400        3.0878200        6.2399600
       46.660000        2.6076000        7.1197500
       47.414700        2.2541200        8.1240600
       48.181600        2.0673800        9.2509300
       48.960900        2.0544100        10.480300
       49.752800        2.3602700        11.820000
       50.557600        2.9046900        13.035500
       51.375300        3.8940100        14.325800
       52.206200        4.9987900        14.825300
       53.050600        6.0056400        15.342200
       53.908700        6.9679400        15.600000
       54.780600        7.8718400        15.848500
       55.666700        8.7576000        15.963400
       56.567000        9.6095200        16.057500
       57.482000        10.568000        16.082800
       58.411700        11.410600        15.863300
       59.356400        12.147900        15.646700
       60.316500        12.903300        15.364200
       61.292100        13.528100        14.981900
       62.283400        14.094300        14.609000
       63.290800        14.660700        14.137900
       64.314500        15.054900        13.602100
       65.354700        15.317300        13.086700
       66.411800        15.442000        12.648500
       67.485900        15.589200        12.317000
       68.577500        15.732400        11.994200
       69.686700        15.851200        11.679900
       70.813800        15.918100        11.406600
       71.959100        16.013100        11.182700
       73.123000        16.116200        10.963100
       74.305700        16.219100        10.747900
       75.507600        16.319900        10.537000
       76.728900        16.418800        10.330100
       77.969900        16.518400        10.127300
       79.231000        16.626000        9.9285200
       80.512500        16.772400        9.7181800
       81.814700        16.878000        9.4081300
       83.138000        16.927200        9.1079600
       84.482700        16.937300        8.8173800
       85.849100        16.918500        8.5360600
       87.237700        16.873100        8.2637100
       88.648700        16.801400        8.0000700
       90.082500        16.701500        7.7448100
       91.539500        16.565100        7.4977300
       93.020100        16.356000        7.2585100
       94.524600        16.138600        7.1579400
       96.053500        15.968200        7.0701700
       97.607100        15.810600        6.9834700
       99.185800        15.652000        6.8978300
       100.79000        15.479200        6.8132400
       102.42000        15.262600        6.7624500
       104.07700        15.076600        6.7536500
       105.76000        14.905600        6.7448700
       107.47100        14.726800        6.7361000
       109.20900        14.506900        6.7481300
       110.97500        14.312300        6.8111100
       112.77000        14.135600        6.8746900
       114.59400        13.952500        6.9388500
       116.44800        13.717500        7.0365700
       118.33100        13.529700        7.1987600
       120.24500        13.378200        7.3646900
       122.19000        13.242400        7.5344500
       124.16600        13.118600        7.7081100
       126.17500        13.003800        7.8857900
       128.21500        12.895700        8.0675500
       130.28900        12.790900        8.2535100
       132.39700        12.676500        8.4481400
       134.53800        12.576500        8.6751400
       136.71400        12.495200        8.9082300
       138.92500        12.426100        9.1475900
       141.17200        12.367900        9.3933700
       143.45600        12.320200        9.6457700
       145.77600        12.282900        9.9049400
       148.13400        12.256500        10.171100
       150.53000        12.243000        10.442900
       152.96400        12.239100        10.719400
       155.43900        12.246000        11.003300
       157.95300        12.266300        11.294800
       160.50700        12.303000        11.593900
       163.10300        12.366000        11.901000
       165.74200        12.446200        12.182100
       168.42200        12.527500        12.463600
       171.14600        12.616000        12.751700
       173.91500        12.723200        13.046400
       176.72700        12.891600        13.320200
       179.58600        13.030400        13.542100
       182.49100        13.145100        13.767600
       185.44200        13.255000        13.996900
       188.44200        13.362400        14.230000
       191.48900        13.468800        14.466900
       194.58700        13.574800        14.707900
       197.73400        13.680400        14.952800
       200.93200        13.778800        15.201800
       204.18200        13.882300        15.475100
       207.48500        13.998300        15.754500
       210.84000        14.123600        16.038900
       214.25100        14.257000        16.328400
       217.71600        14.398600        16.623200
       221.23700        14.540700        16.923300
       224.81600        14.705400        17.255300
       228.45200        14.908900        17.567600
       232.14700        15.110200        17.864900
       235.90200        15.310600        18.167200
       239.71700        15.519600        18.474600
       243.59500        15.739000        18.787200
       247.53500        15.971000        19.105100
       251.53800        16.217900        19.428400
       255.60700        16.483400        19.757200
       259.74100        16.780100        20.091500
       263.94200        17.098200        20.403700
       268.21100        17.428800        20.715200
       272.54900        17.791800        21.031500
       276.95700        18.227100        21.300000
       281.43700        18.643500        21.505000
       285.98900        19.027100        21.670400
       290.61500        19.387600        21.830700
       295.31500        19.731500        21.991600
       300.09200        20.067600        22.153900
       304.94500        20.399000        22.317600
       309.87800        20.728400        22.483000
       314.89000        21.057100        22.649100
       319.98300        21.385800        22.816400
       325.15800        21.716400        22.985400
       330.41800        22.049400        23.154900
       335.76200        22.385200        23.325800
       341.19200        22.725300        23.498300
       346.71100        23.071100        23.672300
       352.31900        23.423800        23.847500
       358.01700        23.784100        24.023600
       363.80800        24.154200        24.201300
       369.69200        24.536800        24.380400
       375.67200        24.935500        24.560600
       381.74800        25.358300        24.742200
       387.92200        25.822400        24.912300
       394.19700        26.342200        25.054800
       400.57300        26.870000        25.075500
       407.05200        27.321700        25.047700
       413.63500        27.727800        25.020300
       420.32600        28.103800        24.993300
       427.12400        28.454000        24.966400
       434.03200        28.776400        24.938400
       441.05200        29.068000        24.911100
       448.18600        29.262300        24.904600
       455.43500        29.457900        25.001300
       462.80200        29.680500        25.171400
       470.28700        29.962000        25.382400
       477.89400        30.300200        25.595500
       485.62300        30.674000        25.809400
       493.47800        31.081800        26.024900
       501.45900        31.529200        26.243500
       509.57000        32.027100        26.463200
       517.81200        32.616400        26.662700
       526.18700        33.272400        26.785500
       534.69800        33.941600        26.761600
       543.34600        34.521100        26.664700
       552.13400        35.055100        26.568000
       561.06500        35.565500        26.455100
       570.13900        36.056700        26.331900
       579.36100        36.517000        26.188300
       588.73200        36.950200        26.040600
       598.25400        37.356100        25.890700
       607.93000        37.736500        25.741600
       617.76300        38.087100        25.593500
       627.75500        38.380800        25.452700
       637.90800        38.630900        25.391400
       648.22600        38.891400        25.447500
       658.71100        39.279300        25.581800
       669.36500        39.809900        25.716700
       680.19100        40.471700        25.678200
       691.19300        41.094900        25.501800
       702.37200        41.619400        25.265900
       713.73300        42.099700        25.016900
       725.27700        42.537400        24.759700
       737.00800        42.946400        24.505300
       748.92800        43.335200        24.253400
       761.04200        43.710200        24.003600
       773.35100        44.077900        23.752100
       785.85900        44.436000        23.488100
       798.57000        44.770500        23.214600
       811.48600        45.086700        22.944300
       824.61100        45.389700        22.676900
       837.94900        45.684000        22.412400
       851.50200        45.970500        22.144300
       865.27400        46.247600        21.871800
       879.26900        46.508700        21.595900
       893.49100        46.757400        21.323200
       907.94300        46.998000        21.053800
       922.62800        47.238400        20.787500
       937.55100        47.468600        20.502000
       952.71500        47.683800        20.214600
       968.12400        47.881400        19.926100
       983.78300        48.066000        19.641400
       999.69500        48.241600        19.358600
       1015.8600        48.411900        19.077600
       1032.2900        48.569000        18.783600
       1048.9900        48.710600        18.489400
       1065.9600        48.833400        18.194900
       1083.2000        48.940300        17.904800
       1100.7200        49.033500        17.619100
       1118.5200        49.113900        17.337800
       1136.6100        49.181800        17.060300
       1155.0000        49.237600        16.787000
       1173.6800        49.281500        16.517900
       1192.6600        49.313800        16.252900
       1211.9500        49.335100        15.991800
       1231.5500        49.345900        15.734300
       1251.4700        49.346000        15.477400
       1271.7200        49.334000        15.220400
       1292.2900        49.304300        14.962400
       1313.1900        49.257200        14.708400
       1334.4300        49.193500        14.458400
       1356.0100        49.113000        14.212300
       1377.9400        49.014800        13.970000
       1400.2300        48.898100        13.731700
       1422.8800        48.762300        13.497400
       1445.8900        48.605900        13.266300
       1469.2800        48.427300        13.038400
       1493.0400        48.225100        12.813600
       1517.1900        47.994200        12.587900
       1541.7300        47.730500        12.365600
       1566.6700        47.430900        12.147100
       1592.0100        47.091400        11.931900
       1617.7600        46.706000        11.720400
       1643.9200        46.268000        11.512600
       1670.5100        45.767800        11.308100
       1697.5300        45.193100        11.106900
       1724.9900        44.530000        10.909100
       1752.8900        43.751400        10.708800
       1781.2400        42.820800        10.510000
       1810.0500        41.685900        10.313000
       1839.3200        40.260600        10.119600
       1869.0700        38.388100        9.9297800
       1899.3000        35.723600        9.7437600
       1930.0200        31.191100        9.5606900
       1960.0000       -1.9802500        9.3880900
       1960.2000       -1.9825400        27.251500
       1961.2400        11.839300        27.233200
       1992.9600        29.263800        26.686700
       2025.2000        26.282400        26.151100
       2030.7000        11.396000        26.061600
       2030.9000        11.428400        38.249600
       2057.9500        35.399800        37.551600
       2091.2400        40.537000        36.722300
       2125.0600        43.818100        35.911600
       2159.4300        46.263900        35.118500
       2194.3600        48.199000        34.342900
       2229.8500        49.773700        33.585000
       2265.9200        51.065800        32.843900
       2302.5700        52.113700        32.120000
       2339.8100        52.923000        31.412000
       2377.6600        53.446200        30.719600
       2416.1100        53.474100        30.043900
       2455.1900        49.873600        29.383500
       2457.1000        45.466900        29.351900
       2457.3000        45.481100        34.090000
       2494.9000        55.258700        33.313000
       2535.2600        57.105500        32.511200
       2576.2600        58.380300        31.729000
       2617.9300        59.370200        30.966100
       2660.2700        60.158700        30.223400
       2703.3000        60.760100        29.498000
       2747.0300        61.105900        28.791600
       2791.4600        59.419400        28.103200
       2792.1000        58.321600        28.093400
       2792.3000        58.330500        29.866600
       2836.6100        62.328200        29.190800
       2882.4900        63.228100        28.517700
       2929.1100        63.879800        27.860300
       2976.4800        64.356200        27.220000
       3024.6300        64.539500        26.594700
       3048.4000        62.798700        26.294800
       3048.6000        62.800900        27.443700
       3073.5500        65.087900        27.135700
       3123.2600        65.974800        26.539200
       3173.7800        66.612600        25.954100
       3225.1100        67.152500        25.378700
       3277.2700        67.629200        24.813900
       3330.2800        68.059400        24.260300
       3384.1500        68.451900        23.716900
       3438.8800        68.811400        23.183200
       3494.5000        69.142200        22.660100
       3551.0200        69.446900        22.146500
       3608.4600        69.728300        21.644200
       3666.8200        69.989100        21.151400
       3726.1300        70.230200        20.668100
       3786.4000        70.453500        20.194600
       3847.6400        70.659400        19.730200
       3909.8700        70.849600        19.276000
       3973.1100        71.026000        18.831200
       4037.3800        71.189100        18.395000
       4102.6800        71.338400        17.967100
       4169.0300        71.475400        17.549000
       4236.4600        71.601600        17.139600
