;  Atomic scattering factors for P.
;   
;  Concatenation of data from CXRO <http://www-cxro.lbl.gov>
;  and LLNL <http://www-phys.llnl.gov/V_Div/scattering/asf.html>
;  
;  E (eV) f1 f2
;---------------
       10.000000       -9999.0000        8.4773800
       10.161700       -9999.0000        8.2709200
       10.326100       -9999.0000        8.0694900
       10.493100       -9999.0000        7.8729700
       10.662800       -9999.0000        7.6812300
       10.835300       -9999.0000        7.4941600
       11.010600       -9999.0000        7.3116500
       11.188600       -9999.0000        7.1335900
       11.369600       -9999.0000        6.9598500
       11.553500       -9999.0000        6.7903500
       11.740400       -9999.0000        6.6249800
       11.930300       -9999.0000        6.4636400
       12.123200       -9999.0000        6.3062300
       12.319300       -9999.0000        6.1427900
       12.518600       -9999.0000        5.9693800
       12.721000       -9999.0000        5.8008700
       12.926800       -9999.0000        5.6371100
       13.135900       -9999.0000        5.4779700
       13.348300       -9999.0000        5.3205900
       13.564200       -9999.0000        5.1023200
       13.783600       -9999.0000        4.8930000
       14.006600       -9999.0000        4.6922700
       14.233100       -9999.0000        4.4997700
       14.463300       -9999.0000        4.3151700
       14.697300       -9999.0000        4.1381500
       14.935000       -9999.0000        3.9683800
       15.176500       -9999.0000        3.8055800
       15.422000       -9999.0000        3.6494600
       15.671400       -9999.0000        3.4949800
       15.924900       -9999.0000        3.3355900
       16.182500       -9999.0000        3.1834700
       16.444200       -9999.0000        3.0382800
       16.710200       -9999.0000        2.8941900
       16.980500       -9999.0000        2.6931800
       17.255100       -9999.0000        2.5061400
       17.534200       -9999.0000        2.3198600
       17.817800       -9999.0000        2.1007600
       18.106000       -9999.0000        1.9023700
       18.398900       -9999.0000        1.7000800
       18.696400       -9999.0000        1.5157200
       18.998800       -9999.0000        1.3718400
       19.306100       -9999.0000        1.2432000
       19.618400       -9999.0000        1.1249400
       19.935700       -9999.0000        1.0157400
       20.258200       -9999.0000       0.91428800
       20.585800       -9999.0000       0.81611900
       20.918800       -9999.0000       0.73159000
       21.257100       -9999.0000       0.66162900
       21.600900       -9999.0000       0.59717900
       21.950300       -9999.0000       0.53726600
       22.305300       -9999.0000       0.48336500
       22.666100       -9999.0000       0.43811600
       23.032700       -9999.0000       0.39752400
       23.405300       -9999.0000       0.36265600
       23.783800       -9999.0000       0.33444100
       24.168500       -9999.0000       0.30842100
       24.559400       -9999.0000       0.28218200
       24.956600       -9999.0000       0.25700900
       25.360300       -9999.0000       0.23659400
       25.770500       -9999.0000       0.22277200
       26.187300       -9999.0000       0.20991700
       26.610900       -9999.0000       0.20646000
       27.041300       -9999.0000       0.20305900
       27.478600       -9999.0000       0.20425500
       27.923100       -9999.0000       0.20975300
       28.374700       -9999.0000       0.21539900
       28.833700       -9999.0000       0.22119600
       29.300000        4.9780500       0.22970800
       29.773900        4.9424500       0.23870800
       30.255500        4.9091500       0.24806100
       30.744900        4.8775300       0.25807300
       31.242100        4.8480900       0.26899500
       31.747500        4.8207100       0.28038000
       32.260900        4.7953100       0.29224700
       32.782700        4.7723300       0.30461500
       33.313000        4.7528500       0.31630700
       33.851800        4.7334500       0.32536800
       34.399300        4.7141600       0.33468800
       34.955700        4.6957500       0.34373800
       35.521100        4.6774600       0.35263900
       36.095600        4.6595800       0.36176900
       36.679400        4.6421800       0.37113600
       37.272700        4.6252800       0.38074600
       37.875500        4.6088900       0.39060500
       38.488200        4.5930100       0.40071800
       39.110700        4.5776300       0.41109400
       39.743200        4.5627600       0.42173900
       40.386100        4.5484100       0.43265800
       41.039300        4.5345900       0.44386100
       41.703100        4.5213300       0.45535400
       42.377600        4.5087200       0.46714500
       43.063000        4.4969600       0.47924000
       43.759500        4.4861800       0.49069000
       44.467300        4.4751700       0.50187200
       45.186500        4.4643100       0.51330800
       45.917400        4.4537200       0.52500500
       46.660000        4.4434800       0.53696800
       47.414700        4.4336600       0.54920400
       48.181600        4.4243300       0.56171900
       48.960900        4.4155700       0.57451900
       49.752800        4.4075100       0.58761000
       50.557600        4.4003500       0.60100000
       51.375300        4.3944700       0.61469500
       52.206200        4.3907600       0.62870300
       53.050600        4.3922300       0.63928800
       53.908700        4.3897700       0.64413800
       54.780600        4.3849400       0.64902600
       55.666700        4.3788100       0.65395000
       56.567000        4.3718000       0.65891100
       57.482000        4.3641100       0.66391100
       58.411700        4.3558800       0.66894800
       59.356400        4.3472600       0.67402300
       60.316500        4.3384200       0.67913700
       61.292100        4.3297900       0.68429000
       62.283400        4.3227500       0.68800500
       63.290800        4.3132200       0.68851500
       64.314500        4.3015600       0.68902400
       65.354700        4.2883200       0.68953500
       66.411800        4.2737300       0.69004500
       67.485900        4.2578600       0.69055600
       68.577500        4.2407200       0.69106700
       69.686700        4.2223100       0.69157900
       70.813800        4.2026300       0.69209100
       71.959100        4.1816400       0.69260300
       73.123000        4.1593300       0.69311600
       74.305700        4.1356800       0.69362900
       75.507600        4.1107300       0.69414300
       76.728900        4.0847200       0.69465700
       77.969900        4.0577200       0.69381800
       79.231000        4.0277600       0.69206000
       80.512500        3.9952700       0.69030600
       81.814700        3.9603400       0.68855800
       83.138000        3.9229300       0.68681300
       84.482700        3.8829200       0.68507300
       85.849100        3.8401800       0.68333700
       87.237700        3.7945700       0.68160500
       88.648700        3.7459000       0.67987900
       90.082500        3.6939900       0.67815600
       91.539500        3.6386700       0.67643800
       93.020100        3.5797600       0.67472300
       94.524600        3.5174500       0.67301400
       96.053500        3.4533800       0.66902300
       97.607100        3.3811600       0.66191800
       99.185800        3.3011700       0.65488800
       100.79000        3.2138700       0.64793200
       102.42000        3.1187000       0.64105100
       104.07700        3.0149200       0.63424300
       105.76000        2.9015900       0.62750700
       107.47100        2.7776000       0.62084200
       109.20900        2.6416200       0.61424800
       110.97500        2.4924900       0.60772500
       112.77000        2.3270800       0.59833000
       114.59400        2.1404900       0.58843900
       116.44800        1.9293200       0.57871200
       118.33100        1.6888400       0.56914500
       120.24500        1.4118900       0.55973600
       122.19000        1.0881400       0.55048300
       124.16600       0.70179100       0.54138300
       126.17500       0.22710400       0.53243300
       128.21500      -0.38239600       0.52363100
       130.28900       -1.2251200       0.51497500
       132.39700       -2.5809900       0.50646200
       134.53800       -6.4299100       0.49808900
       134.90000       -9.7503600       0.49670100
       135.10000       -9.7804000        7.2482100
       136.71400       -3.8068800        7.3762400
       138.92500       -2.1187100        7.5528100
       141.17200       -1.1970000        7.7336000
       143.45600      -0.54138200        7.9187200
       145.77600     -0.014160200        8.1082800
       148.13400       0.44498500        8.3023600
       150.53000       0.87247000        8.5011000
       152.96400        1.3132600        8.7046000
       155.43900        1.7301300        8.8079700
       157.95300        2.1010600        8.9110100
       160.50700        2.4441400        9.0152600
       163.10300        2.7774600        9.1207300
       165.74200        3.1131300        9.2274400
       168.42200        3.4813500        9.3353900
       171.14600        3.9096200        9.3240400
       173.91500        4.2245500        9.2212800
       176.72700        4.4379800        9.1196600
       179.58600        4.5708400        9.0191500
       182.49100        4.4883500        8.9197700
       185.44200        4.4382700        9.2323400
       188.44200        4.5681300        9.5727800
       191.48900        4.8107900        9.9257700
       194.58700        5.1751400        10.291800
       197.73400        5.7909300        10.636500
       200.93200        6.3613200        10.551300
       204.18200        6.8105800        10.466800
       207.48500        7.1883800        10.383000
       210.84000        7.5386000        10.299900
       214.25100        7.8991800        10.201000
       217.71600        8.2143000        10.061000
       221.23700        8.4886400        9.9228100
       224.81600        8.7392300        9.7865500
       228.45200        8.9691300        9.6521800
       232.14700        9.1770200        9.5196400
       235.90200        9.3681400        9.4059400
       239.71700        9.5575000        9.3002200
       243.59500        9.7445500        9.1956800
       247.53500        9.9263600        9.0923300
       251.53800        10.103200        8.9901200
       255.60700        10.275600        8.8890700
       259.74100        10.444000        8.7891600
       263.94200        10.609200        8.6903700
       268.21100        10.772300        8.5927000
       272.54900        10.934600        8.4961100
       276.95700        11.099200        8.4006200
       281.43700        11.279900        8.2978400
       285.98900        11.442000        8.1649400
       290.61500        11.587600        8.0341700
       295.31500        11.722500        7.9055000
       300.09200        11.849400        7.7788800
       304.94500        11.969600        7.6542900
       309.87800        12.084000        7.5317100
       314.89000        12.193200        7.4110800
       319.98300        12.297800        7.2923800
       325.15800        12.398000        7.1755900
       330.41800        12.494400        7.0606700
       335.76200        12.587300        6.9475800
       341.19200        12.676900        6.8363100
       346.71100        12.763600        6.7268200
       352.31900        12.847700        6.6190900
       358.01700        12.929500        6.5130800
       363.80800        13.009200        6.4087600
       369.69200        13.087400        6.3061200
       375.67200        13.164500        6.2051200
       381.74800        13.241500        6.1057500
       387.92200        13.321200        6.0063500
       394.19700        13.402500        5.9039100
       400.57300        13.481100        5.7917800
       407.05200        13.549700        5.6773500
       413.63500        13.612000        5.5653600
       420.32600        13.670100        5.4555000
       427.12400        13.724800        5.3477700
       434.03200        13.776600        5.2421000
       441.05200        13.826300        5.1385500
       448.18600        13.876500        5.0363000
       455.43500        13.924000        4.9323900
       462.80200        13.968100        4.8279000
       470.28700        14.008000        4.7241600
       477.89400        14.043900        4.6225100
       485.62300        14.077200        4.5232000
       493.47800        14.108200        4.4261000
       501.45900        14.137600        4.3311600
       509.57000        14.165600        4.2380900
       517.81200        14.192900        4.1466400
       526.18700        14.219500        4.0560300
       534.69800        14.244800        3.9651100
       543.34600        14.267600        3.8751100
       552.13400        14.290900        3.7872000
       561.06500        14.312700        3.6930000
       570.13900        14.324500        3.5983200
       579.36100        14.332200        3.5128900
       588.73200        14.339400        3.4315600
       598.25400        14.347600        3.3533900
       607.93000        14.356100        3.2770100
       617.76300        14.365200        3.2023500
       627.75500        14.376400        3.1289900
       637.90800        14.388900        3.0526400
       648.22600        14.399700        2.9713800
       658.71100        14.402600        2.8879400
       669.36500        14.397800        2.8068100
       680.19100        14.387200        2.7353800
       691.19300        14.378700        2.6714100
       702.37200        14.376000        2.6105400
       713.73300        14.375200        2.5473000
       725.27700        14.372100        2.4830600
       737.00800        14.367600        2.4204500
       748.92800        14.362200        2.3594200
       761.04200        14.356400        2.2998700
       773.35100        14.350800        2.2413500
       785.85900        14.344800        2.1826700
       798.57000        14.336700        2.1242000
       811.48600        14.327100        2.0673100
       824.61100        14.316400        2.0119300
       837.94900        14.304800        1.9580300
       851.50200        14.292200        1.9057900
       865.27400        14.279000        1.8551700
       879.26900        14.265400        1.8061000
       893.49100        14.251400        1.7583500
       907.94300        14.237000        1.7118500
       922.62800        14.222400        1.6665800
       937.55100        14.207300        1.6222500
       952.71500        14.191700        1.5790600
       968.12400        14.175600        1.5369800
       983.78300        14.159200        1.4960400
       999.69500        14.142300        1.4562100
       1015.8600        14.125100        1.4174700
       1032.2900        14.107900        1.3798300
       1048.9900        14.090500        1.3427300
       1065.9600        14.072400        1.3061500
       1083.2000        14.053500        1.2705600
       1100.7200        14.034100        1.2359600
       1118.5200        14.014200        1.2023200
       1136.6100        13.993900        1.1695600
       1155.0000        13.973000        1.1377000
       1173.6800        13.951600        1.1067300
       1192.6600        13.929700        1.0765700
       1211.9500        13.907200        1.0472300
       1231.5500        13.884100        1.0186700
       1251.4700        13.860400       0.99099600
       1271.7200        13.836000       0.96414600
       1292.2900        13.811000       0.93810700
       1313.1900        13.785400       0.91277500
       1334.4300        13.759100       0.88812800
       1356.0100        13.731900       0.86414500
       1377.9400        13.703900       0.84081400
       1400.2300        13.674800       0.81811200
       1422.8800        13.644700       0.79602400
       1445.8900        13.613400       0.77453000
       1469.2800        13.580700       0.75367300
       1493.0400        13.546500       0.73345800
       1517.1900        13.510800       0.71414400
       1541.7300        13.473600       0.69538600
       1566.6700        13.434500       0.67711400
       1592.0100        13.393300       0.65933200
       1617.7600        13.349700       0.64201500
       1643.9200        13.303200       0.62514800
       1670.5100        13.253600       0.60872300
       1697.5300        13.200400       0.59273200
       1724.9900        13.143000       0.57716400
       1752.8900        13.080600       0.56147900
       1781.2400        13.011800       0.54604800
       1810.0500        12.935500       0.53091700
       1839.3200        12.850100       0.51620000
       1869.0700        12.753500       0.50188900
       1899.3000        12.642600       0.48797700
       1930.0200        12.513200       0.47444800
       1961.2400        12.358800       0.46129600
       1992.9600        12.168700       0.44851300
       2025.2000        11.924900       0.43636100
       2057.9500        11.589500       0.42389500
       2091.2400        11.067600       0.41166500
       2125.0600        9.9541500       0.39970000
       2145.4000        3.5459500       0.39276200
       2145.6000        3.5476500        4.2228400
       2159.4300        9.6095900        4.1850900
       2194.3600        11.218700        4.0923300
       2229.8500        11.942300        4.0006700
       2265.9200        12.421900        3.9102100
       2302.5700        12.782600        3.8210000
       2339.8100        13.071900        3.7329300
       2377.6600        13.312700        3.6460500
       2416.1100        13.518600        3.5605500
       2455.1900        13.697600        3.4763000
       2494.9000        13.855300        3.3933900
       2535.2600        13.995700        3.3118500
       2576.2600        14.121600        3.2317500
       2617.9300        14.235200        3.1529600
       2660.2700        14.338300        3.0757600
       2703.3000        14.432100        2.9996800
       2747.0300        14.517700        2.9251200
       2791.4600        14.596100        2.8519500
       2836.6100        14.667900        2.7802200
       2882.4900        14.734000        2.7099200
       2929.1100        14.794700        2.6409100
       2976.4800        14.850600        2.5734100
       3024.6300        14.902000        2.5073100
       3073.5500        14.949600        2.4427000
       3123.2600        14.993500        2.3792400
       3173.7800        15.033900        2.3171500
       3225.1100        15.071000        2.2564900
       3277.2700        15.105300        2.1971500
       3330.2800        15.136900        2.1391000
       3384.1500        15.166000        2.0823700
       3438.8800        15.192700        2.0269100
       3494.5000        15.217200        1.9727300
       3551.0200        15.239700        1.9198100
       3608.4600        15.260300        1.8681100
       3666.8200        15.279100        1.8176200
       3726.1300        15.296200        1.7683300
       3786.4000        15.311800        1.7202100
       3847.6400        15.325900        1.6732500
       3909.8700        15.338700        1.6274300
       3973.1100        15.350200        1.5827400
       4037.3800        15.360500        1.5391400
       4102.6800        15.369700        1.4966100
       4169.0300        15.377800        1.4551500
       4236.4600        15.385000        1.4147200
       4304.9800        15.391200        1.3752900
       4374.6200        15.396600        1.3368700
       4445.3700        15.401100        1.2994300
       4517.2700        15.404900        1.2629500
       4590.3300        15.408000        1.2274200
       4664.5800        15.410500        1.1927800
