;  Atomic scattering factors for Pb.
;   
;  Concatenation of data from CXRO <http://www-cxro.lbl.gov>
;  and LLNL <http://www-phys.llnl.gov/V_Div/scattering/asf.html>
;  
;  E (eV) f1 f2
;---------------
       10.000000       -9999.0000        4.6699000
       10.161700       -9999.0000        4.7273500
       10.326100       -9999.0000        4.7855100
       10.493100       -9999.0000        4.8443900
       10.662800       -9999.0000        4.8395700
       10.835300       -9999.0000        4.8320300
       11.010600       -9999.0000        4.8245100
       11.188600       -9999.0000        4.8170000
       11.369600       -9999.0000        4.7889000
       11.553500       -9999.0000        4.7596000
       11.740400       -9999.0000        4.7304700
       11.930300       -9999.0000        4.7030200
       12.123200       -9999.0000        4.6837000
       12.319300       -9999.0000        4.6644600
       12.518600       -9999.0000        4.6453000
       12.721000       -9999.0000        4.6253600
       12.926800       -9999.0000        4.4425700
       13.135900       -9999.0000        4.2669900
       13.348300       -9999.0000        4.0983700
       13.564200       -9999.0000        3.8820000
       13.783600       -9999.0000        3.6392100
       14.006600       -9999.0000        3.4115900
       14.233100       -9999.0000        3.1776600
       14.463300       -9999.0000        2.9436500
       14.697300       -9999.0000        2.7268800
       14.935000       -9999.0000        2.4707600
       15.176500       -9999.0000        2.2167800
       15.422000       -9999.0000        2.0114300
       15.671400       -9999.0000        1.9037800
       15.924900       -9999.0000        1.8018900
       16.182500       -9999.0000        1.7054600
       16.444200       -9999.0000        1.6365600
       16.710200       -9999.0000        1.5857000
       16.980500       -9999.0000        1.5553300
       17.255100       -9999.0000        1.5705200
       17.534200       -9999.0000        1.6067300
       17.817800       -9999.0000        1.7178600
       18.106000       -9999.0000        1.9833500
       18.398900       -9999.0000        3.1490000
       18.696400       -9999.0000        3.9129800
       18.998800       -9999.0000        4.1050600
       19.306100       -9999.0000        4.3065800
       19.618400       -9999.0000        4.4752100
       19.935700       -9999.0000        4.6249300
       20.258200       -9999.0000        4.7796600
       20.585800       -9999.0000        4.8703900
       20.918800       -9999.0000        4.9155600
       21.257100       -9999.0000        4.9611600
       21.600900       -9999.0000        5.0071800
       21.950300       -9999.0000        4.9674900
       22.305300       -9999.0000        4.9071200
       22.666100       -9999.0000        4.8474900
       23.032700       -9999.0000        4.8002100
       23.405300       -9999.0000        4.7716600
       23.783800       -9999.0000        4.7432900
       24.168500       -9999.0000        4.7150800
       24.559400       -9999.0000        4.6925400
       24.956600       -9999.0000        4.6740000
       25.360300       -9999.0000        4.6555300
       25.770500       -9999.0000        4.6638000
       26.187300       -9999.0000        4.7189400
       26.610900       -9999.0000        4.7747200
       27.041300       -9999.0000        4.8587300
       27.478600       -9999.0000        5.0025700
       27.923100       -9999.0000        5.1506800
       28.374700       -9999.0000        5.3031600
       28.833700       -9999.0000        5.4601700
       29.300000     -0.019046900        5.6218200
       29.773900      -0.19799600        5.8194300
       30.255500      -0.35036900        6.0605200
       30.744900      -0.48437400        6.3115900
       31.242100      -0.60747700        6.5730700
       31.747500      -0.72167500        6.8453800
       32.260900      -0.82842600        7.1289700
       32.782700      -0.92810500        7.4243000
       33.313000       -1.0244600        7.7318700
       33.851800       -1.1120000        8.0611100
       34.399300       -1.1866900        8.4054900
       34.955700       -1.2487700        8.7645700
       35.521100       -1.2979200        9.1390000
       36.095600       -1.3319600        9.5294200
       36.679400       -1.3488800        9.9365100
       37.272700       -1.3442200        10.361000
       37.875500       -1.2947800        10.803600
       38.488200       -1.2295300        11.210200
       39.110700       -1.1671100        11.627700
       39.743200       -1.0939500        12.060600
       40.386100       -1.0039400        12.509700
       41.039300      -0.89064500        12.975500
       41.703100      -0.74592300        13.458700
       42.377600      -0.54357600        13.959800
       43.063000      -0.29652900        14.393300
       43.759500     -0.063382300        14.807800
       44.467300       0.16285100        15.234300
       45.186500       0.40463600        15.673000
       45.917400       0.67042800        16.124400
       46.660000       0.97784700        16.588800
       47.414700        1.3565500        17.008300
       48.181600        1.7133300        17.374300
       48.960900        2.0492200        17.748100
       49.752800        2.3928300        18.130000
       50.557600        2.7497900        18.520100
       51.375300        3.1262400        18.918600
       52.206200        3.5284600        19.325700
       53.050600        3.9646500        19.741600
       53.908700        4.4962400        20.166400
       54.780600        5.0377800        20.461800
       55.666700        5.5464000        20.754600
       56.567000        6.0559700        21.051600
       57.482000        6.5796800        21.352800
       58.411700        7.1284600        21.658400
       59.356400        7.7171300        21.968300
       60.316500        8.3929200        22.282600
       61.292100        9.1179100        22.441400
       62.283400        9.7951500        22.547400
       63.290800        10.438500        22.654000
       64.314500        11.090200        22.761100
       65.354700        11.814100        22.868600
       66.411800        12.574700        22.838500
       67.485900        13.244600        22.725600
       68.577500        13.860100        22.613400
       69.686700        14.446400        22.501600
       70.813800        15.012900        22.390500
       71.959100        15.567400        22.283600
       73.123000        16.118100        22.178700
       74.305700        16.670200        22.074400
       75.507600        17.228800        21.970600
       76.728900        17.801600        21.867300
       77.969900        18.397200        21.764400
       79.231000        19.118400        21.662000
       80.512500        19.824600        21.331600
       81.814700        20.416900        20.972000
       83.138000        20.956100        20.618500
       84.482700        21.465900        20.270900
       85.849100        21.959700        19.929200
       87.237700        22.449300        19.593300
       88.648700        22.944500        19.263000
       90.082500        23.579600        18.917000
       91.539500        24.131100        18.332400
       93.020100        24.546000        17.765800
       94.524600        24.906700        17.216800
       96.053500        25.234100        16.684700
       97.607100        25.549400        16.169100
       99.185800        25.901600        15.611100
       100.79000        26.172100        14.981700
       102.42000        26.358000        14.377600
       104.07700        26.509900        13.797900
       105.76000        26.644900        13.241600
       107.47100        26.802600        12.707800
       109.20900        26.999000        12.048100
       110.97500        27.051500        11.295700
       112.77000        26.956200        10.590300
       114.59400        26.786600        9.9290100
       116.44800        26.462400        9.3337700
       118.33100        26.163200        8.9279200
       120.24500        25.925200        8.5397000
       122.19000        25.688400        8.1683700
       124.16600        25.444100        7.8132000
       126.17500        25.187400        7.4734500
       128.21500        24.845700        7.1567600
       130.28900        24.538200        6.9880100
       132.39700        24.299600        6.8232500
       134.53800        24.084800        6.6623600
       136.71400        23.886400        6.5052700
       138.92500        23.701100        6.3518800
       141.17200        23.530000        6.2021200
       143.45600        23.392500        6.0558800
       145.77600        23.249900        5.8343400
       148.13400        23.065600        5.6029400
       150.53000        22.841000        5.3807100
       152.96400        22.578200        5.1672900
       155.43900        22.300000        5.0063700
       157.95300        22.023900        4.8596800
       160.50700        21.744900        4.7172900
       163.10300        21.452800        4.5790700
       165.74200        21.111400        4.4449000
       168.42200        20.765900        4.3836600
       171.14600        20.440800        4.3306500
       173.91500        20.112300        4.2782800
       176.72700        19.745800        4.2265400
       179.58600        19.352700        4.2321400
       182.49100        18.988800        4.2842500
       185.44200        18.639300        4.3370100
       188.44200        18.278200        4.3922900
       191.48900        17.911700        4.4633000
       194.58700        17.506900        4.5354500
       197.73400        17.079400        4.6727900
       200.93200        16.673000        4.8510900
       204.18200        16.256400        5.0361900
       207.48500        15.821700        5.2902600
       210.84000        15.417200        5.5958200
       214.25100        15.044300        5.9190300
       217.71600        14.684200        6.2609100
       221.23700        14.322200        6.6225300
       224.81600        13.961900        7.0279400
       228.45200        13.628600        7.4820000
       232.14700        13.324600        7.9654200
       235.90200        13.047300        8.4800500
       239.71700        12.803400        9.0279300
       243.59500        12.602900        9.6112300
       247.53500        12.496400        10.232200
       251.53800        12.420400        10.741700
       255.60700        12.324300        11.255600
       259.74100        12.217100        11.794200
       263.94200        12.122300        12.358400
       268.21100        12.046600        12.949700
       272.54900        12.008100        13.569300
       276.95700        11.995000        14.179300
       281.43700        11.996700        14.808400
       285.98900        12.018600        15.465300
       290.61500        12.075500        16.151400
       295.31500        12.177400        16.868000
       300.09200        12.331300        17.616300
       304.94500        12.695400        18.395100
       309.87800        13.061100        18.917500
       314.89000        13.333100        19.454700
       319.98300        13.596000        20.007200
       325.15800        13.862800        20.575300
       330.41800        14.144100        21.159600
       335.76200        14.447500        21.760400
       341.19200        14.788700        22.378400
       346.71100        15.159600        22.988300
       352.31900        15.564800        23.614800
       358.01700        16.020600        24.258400
       363.80800        16.552100        24.919600
       369.69200        17.295300        25.506500
       375.67200        17.993600        25.852600
       381.74800        18.570000        26.203400
       387.92200        19.136200        26.559000
       394.19700        19.712300        26.919300
       400.57300        20.343600        27.265100
       407.05200        20.943400        27.505000
       413.63500        21.499300        27.747000
       420.32600        22.037300        27.991100
       427.12400        22.566700        28.237300
       434.03200        23.083000        28.485700
       441.05200        23.603000        28.754800
       448.18600        24.140900        29.030100
       455.43500        24.697000        29.308100
       462.80200        25.276700        29.588700
       470.28700        25.882600        29.872000
       477.89400        26.617400        30.158100
       485.62300        27.369300        30.258400
       493.47800        28.024700        30.301100
       501.45900        28.634500        30.343900
       509.57000        29.219800        30.386700
       517.81200        29.790000        30.429600
       526.18700        30.353500        30.472600
       534.69800        30.924800        30.509800
       543.34600        31.478100        30.511400
       552.13400        32.008800        30.513000
       561.06500        32.526600        30.514600
       570.13900        33.034900        30.516200
       579.36100        33.536000        30.517800
       588.73200        34.032500        30.519400
       598.25400        34.529600        30.516100
       607.93000        35.017100        30.501800
       617.76300        35.491500        30.487600
       627.75500        35.957300        30.473300
       637.90800        36.412900        30.459100
       648.22600        36.846100        30.444900
       658.71100        37.276800        30.475400
       669.36500        37.727100        30.517100
       680.19100        38.195700        30.558900
       691.19300        38.675900        30.600700
       702.37200        39.168600        30.642600
       713.73300        39.676300        30.684600
       725.27700        40.204600        30.726600
       737.00800        40.778900        30.768700
       748.92800        41.364200        30.728400
       761.04200        41.926300        30.671600
       773.35100        42.476600        30.614800
       785.85900        43.040500        30.558100
       798.57000        43.626300        30.458900
       811.48600        44.186100        30.313300
       824.61100        44.707500        30.168400
       837.94900        45.216100        30.024200
       851.50200        45.707900        29.870800
       865.27400        46.157600        29.731300
       879.26900        46.629900        29.675400
       893.49100        47.157000        29.618800
       907.94300        47.733400        29.562100
       922.62800        48.420600        29.505300
       937.55100        49.130900        29.235600
       952.71500        49.777800        28.911400
       968.12400        50.349100        28.541200
       983.78300        50.871700        28.174900
       999.69500        51.369300        27.806900
       1015.8600        51.862900        27.436900
       1032.2900        52.320400        27.006600
       1048.9900        52.727800        26.579900
       1065.9600        53.099300        26.157200
       1083.2000        53.442100        25.740300
       1100.7200        53.760000        25.329900
       1118.5200        54.056600        24.925800
       1136.6100        54.333500        24.527500
       1155.0000        54.592100        24.135100
       1173.6800        54.833700        23.748600
       1192.6600        55.059200        23.368000
       1211.9500        55.269500        22.993200
       1231.5500        55.464800        22.624300
       1251.4700        55.645600        22.262500
       1271.7200        55.813600        21.908100
       1292.2900        55.971200        21.561400
       1313.1900        56.118700        21.219800
       1334.4300        56.255900        20.883400
       1356.0100        56.382900        20.552000
       1377.9400        56.500100        20.225500
       1400.2300        56.607900        19.903900
       1422.8800        56.706900        19.587000
       1445.8900        56.798800        19.275100
       1469.2800        56.885900        18.964500
       1493.0400        56.969700        18.653300
       1517.1900        57.038200        18.324600
       1541.7300        57.083500        17.998600
       1566.6700        57.109800        17.678100
       1592.0100        57.120200        17.363300
       1617.7600        57.115700        17.054000
       1643.9200        57.096200        16.749600
       1670.5100        57.061800        16.450700
       1697.5300        57.012500        16.157100
       1724.9900        56.953400        15.868600
       1752.8900        56.878000        15.574400
       1781.2400        56.778700        15.282000
       1810.0500        56.656400        14.992000
       1839.3200        56.509300        14.707800
       1869.0700        56.338000        14.429000
       1899.3000        56.140700        14.155300
       1930.0200        55.915400        13.886900
       1961.2400        55.659200        13.623500
       1992.9600        55.366800        13.365000
       2025.2000        55.043400        13.118500
       2057.9500        54.679700        12.863200
       2091.2400        54.257100        12.610300
       2125.0600        53.772000        12.361100
       2159.4300        53.211700        12.115300
       2194.3600        52.559300        11.873000
       2229.8500        51.791100        11.634000
       2265.9200        50.872500        11.398900
       2302.5700        49.749200        11.166800
       2339.8100        48.330000        10.938500
       2377.6600        46.442100        10.713200
       2416.1100        43.681700        10.491200
       2455.1900        38.580200        10.272700
       2483.9000        7.5553600        10.117200
       2484.1000        7.5554500        27.100500
       2494.9000        32.722400        26.928500
       2535.2600        39.491200        26.302100
       2576.2600        36.948800        25.692200
       2585.5000        20.842800        25.558000
       2585.7000        20.858200        37.162600
       2617.9300        44.058600        36.503500
       2660.2700        48.925800        35.667100
       2703.3000        51.965100        34.851200
       2747.0300        54.203500        34.054500
       2791.4600        55.951700        33.277100
       2836.6100        57.346800        32.518800
       2882.4900        58.453300        31.778700
       2929.1100        59.286500        31.055900
       2976.4800        59.796700        30.350100
       3024.6300        59.878200        29.660700
       3066.3000        52.205500        29.085100
       3066.5000        52.219800        33.722600
       3073.5500        58.150400        33.610200
       3123.2600        61.996500        32.834700
       3173.7800        63.667600        32.077400
       3225.1100        64.885600        31.338900
       3277.2700        65.862700        30.617200
       3330.2800        66.669000        29.912600
       3384.1500        67.331800        29.225700
       3438.8800        67.847300        28.554700
       3494.5000        68.148500        27.899500
       3551.0200        67.198400        27.259200
       3554.1000        65.418500        27.225000
       3554.3000        65.420700        28.868100
       3608.4600        69.209500        28.257700
       3666.8200        70.040400        27.624100
       3726.1300        70.632500        27.003900
       3786.4000        71.201800        26.398800
       3847.6400        70.595700        25.808200
       3850.6000        70.001400        25.780200
       3850.8000        70.010500        26.902900
       3909.8700        72.074900        26.330700
       3973.1100        72.788600        25.740900
       4037.3800        73.359000        25.163700
       4102.6800        73.853200        24.595200
       4169.0300        74.292300        24.038000
       4236.4600        74.688800        23.491500
