;  Atomic scattering factors for Pm.
;   
;  Concatenation of data from CXRO <http://www-cxro.lbl.gov>
;  and LLNL <http://www-phys.llnl.gov/V_Div/scattering/asf.html>
;  
;  E (eV) f1 f2
;---------------
       10.000000       -9999.0000       0.21640900
       10.161700       -9999.0000       0.22429000
       10.326100       -9999.0000       0.23245800
       10.493100       -9999.0000       0.24092400
       10.662800       -9999.0000       0.24969800
       10.835300       -9999.0000       0.25879100
       11.010600       -9999.0000       0.26821600
       11.188600       -9999.0000       0.27798400
       11.369600       -9999.0000       0.28810700
       11.553500       -9999.0000       0.29859900
       11.740400       -9999.0000       0.30947400
       11.930300       -9999.0000       0.32074400
       12.123200       -9999.0000       0.33242500
       12.319300       -9999.0000       0.34257700
       12.518600       -9999.0000       0.35199500
       12.721000       -9999.0000       0.36167200
       12.926800       -9999.0000       0.37161500
       13.135900       -9999.0000       0.38183100
       13.348300       -9999.0000       0.39232800
       13.564200       -9999.0000       0.40311400
       13.783600       -9999.0000       0.41358000
       14.006600       -9999.0000       0.42276300
       14.233100       -9999.0000       0.43214900
       14.463300       -9999.0000       0.44174500
       14.697300       -9999.0000       0.45460800
       14.935000       -9999.0000       0.46794000
       15.176500       -9999.0000       0.48166300
       15.422000       -9999.0000       0.49578900
       15.671400       -9999.0000       0.51032800
       15.924900       -9999.0000       0.52529400
       16.182500       -9999.0000       0.54069900
       16.444200       -9999.0000       0.55751200
       16.710200       -9999.0000       0.57565900
       16.980500       -9999.0000       0.59439600
       17.255100       -9999.0000       0.61374300
       17.534200       -9999.0000       0.63533400
       17.817800       -9999.0000       0.66987100
       18.106000       -9999.0000       0.70628400
       18.398900       -9999.0000       0.74467700
       18.696400       -9999.0000       0.79721000
       18.998800       -9999.0000       0.88607200
       19.306100       -9999.0000       0.98484000
       19.618400       -9999.0000        1.1135900
       19.935700       -9999.0000        1.3576500
       20.258200       -9999.0000        1.6552000
       20.585800       -9999.0000        2.0396700
       20.918800       -9999.0000        2.6236200
       21.257100       -9999.0000        3.2273100
       21.600900       -9999.0000        3.8280300
       21.950300       -9999.0000        4.5405600
       22.305300       -9999.0000        5.3984000
       22.666100       -9999.0000        6.4293800
       23.032700       -9999.0000        7.5996800
       23.405300       -9999.0000        8.8877500
       23.783800       -9999.0000        10.321800
       24.168500       -9999.0000        11.935200
       24.559400       -9999.0000        12.953000
       24.956600       -9999.0000        13.609600
       25.360300       -9999.0000        14.299500
       25.770500       -9999.0000        14.677000
       26.187300       -9999.0000        14.965400
       26.610900       -9999.0000        15.259400
       27.041300       -9999.0000        15.462300
       27.478600       -9999.0000        15.178200
       27.923100       -9999.0000        14.899400
       28.374700       -9999.0000        14.625600
       28.833700       -9999.0000        14.356900
       29.300000        8.4561500        14.093200
       29.773900        9.0867400        13.790300
       30.255500        9.6256300        13.404100
       30.744900        10.087200        13.028700
       31.242100        10.499000        12.663800
       31.747500        10.883700        12.309200
       32.260900        11.270300        11.964500
       32.782700        11.622200        11.506000
       33.313000        11.868900        11.049900
       33.851800        12.047200        10.611900
       34.399300        12.162100        10.191300
       34.955700        12.193000        9.8289200
       35.521100        12.243200        9.5437000
       36.095600        12.296900        9.2667500
       36.679400        12.340700        8.9978400
       37.272700        12.364600        8.7367300
       37.875500        12.354300        8.4832100
       38.488200        12.335100        8.3014200
       39.110700        12.335900        8.1273500
       39.743200        12.339500        7.9569200
       40.386100        12.339700        7.7900700
       41.039300        12.333100        7.6267100
       41.703100        12.316000        7.4667800
       42.377600        12.276700        7.3102000
       43.063000        12.187300        7.1936700
       43.759500        12.141400        7.1311500
       44.467300        12.120900        7.0691800
       45.186500        12.110200        7.0077500
       45.917400        12.106300        6.9468600
       46.660000        12.109000        6.8855900
       47.414700        12.112300        6.8183300
       48.181600        12.113800        6.7517300
       48.960900        12.113800        6.6857800
       49.752800        12.112300        6.6204700
       50.557600        12.109000        6.5558000
       51.375300        12.103800        6.4917600
       52.206200        12.097000        6.4267500
       53.050600        12.084600        6.3609300
       53.908700        12.066500        6.2957900
       54.780600        12.041100        6.2313300
       55.666700        12.003100        6.1675000
       56.567000        11.957900        6.1261600
       57.482000        11.920600        6.0902900
       58.411700        11.883600        6.0546500
       59.356400        11.841200        6.0192100
       60.316500        11.797600        5.9976600
       61.292100        11.759000        5.9776800
       62.283400        11.721500        5.9577700
       63.290800        11.683300        5.9379300
       64.314500        11.643700        5.9181500
       65.354700        11.601800        5.8984300
       66.411800        11.557100        5.8787900
       67.485900        11.508800        5.8592000
       68.577500        11.455600        5.8396900
       69.686700        11.395800        5.8239600
       70.813800        11.335200        5.8110600
       71.959100        11.271900        5.7981900
       73.123000        11.204600        5.7853500
       74.305700        11.132500        5.7725400
       75.507600        11.055100        5.7597600
       76.728900        10.971800        5.7470100
       77.969900        10.882200        5.7342700
       79.231000        10.785900        5.7215800
       80.512500        10.682500        5.7089000
       81.814700        10.572600        5.6962700
       83.138000        10.460500        5.6836500
       84.482700        10.336000        5.6488000
       85.849100        10.188900        5.6130900
       87.237700        10.021200        5.5776000
       88.648700        9.8337800        5.5423400
       90.082500        9.6254100        5.5073000
       91.539500        9.3942400        5.4724800
       93.020100        9.1379800        5.4378800
       94.524600        8.8538600        5.4035000
       96.053500        8.5386100        5.3693400
       97.607100        8.1884500        5.3353900
       99.185800        7.7991500        5.3016600
       100.79000        7.3677100        5.2681400
       102.42000        6.9021300        5.2348300
       104.07700        6.3720500        5.1405800
       105.76000        5.7171100        5.0301500
       107.47100        4.9352500        4.9220900
       109.20900        4.0070800        4.8163500
       110.97500        2.8993200        4.7068900
       112.77000        1.5384100        4.5920200
       114.59400      -0.18768300        4.5166200
       116.44800       -2.2989200        4.5167300
       118.33100       -5.0546500        4.5168400
       120.24500       -9.0533600        4.5780000
       122.19000       -15.533800        4.9973200
       124.16600       -27.301900        10.229100
       126.17500       -38.897200        26.572100
       128.21500       -22.710100        57.110400
       130.28900       -4.7109500        56.866400
       132.39700        7.3777500        54.501700
       134.53800        14.874400        50.212600
       136.71400        19.544200        46.261100
       138.92500        22.604800        42.685900
       141.17200        24.958500        40.019800
       143.45600        26.909500        37.520200
       145.77600        28.504100        35.176700
       148.13400        29.767700        32.979700
       150.53000        30.736800        30.919800
       152.96400        31.467000        29.053800
       155.43900        32.063700        27.335100
       157.95300        32.527900        25.717900
       160.50700        32.869900        24.196500
       163.10300        33.102200        22.765000
       165.74200        33.236500        21.418300
       168.42200        33.281000        20.151100
       171.14600        33.241500        18.959000
       173.91500        33.117200        17.837400
       176.72700        32.893600        16.782200
       179.58600        32.473300        15.882600
       182.49100        32.173600        15.248900
       185.44200        31.941700        14.640600
       188.44200        31.731700        14.056400
       191.48900        31.524800        13.495600
       194.58700        31.311400        12.957100
       197.73400        31.083800        12.440200
       200.93200        30.834200        11.943800
       204.18200        30.548900        11.467300
       207.48500        30.128700        11.044000
       210.84000        29.777000        10.836700
       214.25100        29.518500        10.633200
       217.71600        29.291700        10.433600
       221.23700        29.081600        10.237700
       224.81600        28.878400        10.045500
       228.45200        28.673500        9.8569400
       232.14700        28.456500        9.6718800
       235.90200        28.179300        9.4903000
       239.71700        27.885500        9.4391300
       243.59500        27.670200        9.4375500
       247.53500        27.497500        9.4359800
       251.53800        27.349300        9.4343900
       255.60700        27.217400        9.4328200
       259.74100        27.096000        9.4312400
       263.94200        26.980100        9.4296700
       268.21100        26.863500        9.4281000
       272.54900        26.731700        9.4265200
       276.95700        26.562500        9.4794500
       281.43700        26.442000        9.5871000
       285.98900        26.366400        9.6959700
       290.61500        26.312300        9.8060700
       295.31500        26.276200        9.9174400
       300.09200        26.255900        10.030100
       304.94500        26.249800        10.144000
       309.87800        26.257200        10.259100
       314.89000        26.277400        10.375600
       319.98300        26.310100        10.493500
       325.15800        26.355500        10.612600
       330.41800        26.413900        10.733200
       335.76200        26.486100        10.855000
       341.19200        26.574000        10.978300
       346.71100        26.681400        11.103000
       352.31900        26.826000        11.222400
       358.01700        26.969600        11.297300
       363.80800        27.110200        11.372800
       369.69200        27.256000        11.448700
       375.67200        27.414500        11.525100
       381.74800        27.595400        11.602000
       387.92200        27.837500        11.679400
       394.19700        28.070900        11.620600
       400.57300        28.257200        11.553400
       407.05200        28.408500        11.486500
       413.63500        28.541400        11.420000
       420.32600        28.658700        11.353900
       427.12400        28.761600        11.288200
       434.03200        28.831400        11.223000
       441.05200        28.902300        11.204400
       448.18600        28.987700        11.185700
       455.43500        29.077300        11.167100
       462.80200        29.168900        11.148500
       470.28700        29.262100        11.130000
       477.89400        29.356700        11.111400
       485.62300        29.453500        11.092900
       493.47800        29.553900        11.074500
       501.45900        29.663200        11.056000
       509.57000        29.780700        11.018300
       517.81200        29.891500        10.967600
       526.18700        29.993700        10.911500
       534.69800        30.089700        10.845600
       543.34600        30.173700        10.775100
       552.13400        30.250900        10.705200
       561.06500        30.322000        10.629000
       570.13900        30.383000        10.550100
       579.36100        30.434000        10.471100
       588.73200        30.477000        10.392500
       598.25400        30.512500        10.314500
       607.93000        30.541200        10.237200
       617.76300        30.564000        10.160400
       627.75500        30.583500        10.083600
       637.90800        30.598500        10.000100
       648.22600        30.604000        9.9067200
       658.71100        30.589800        9.8072000
       669.36500        30.555100        9.7086300
       680.19100        30.501900        9.6252400
       691.19300        30.445700        9.5533200
       702.37200        30.395900        9.4831400
       713.73300        30.341000        9.3962400
       725.27700        30.262500        9.2983200
       737.00800        30.163000        9.2014000
       748.92800        30.044400        9.1054600
       761.04200        29.906800        9.0103500
       773.35100        29.750200        8.9147100
       785.85900        29.571000        8.8147400
       798.57000        29.361300        8.7115100
       811.48600        29.119300        8.6095800
       824.61100        28.842700        8.5087400
       837.94900        28.527600        8.4089800
       851.50200        28.168100        8.3088300
       865.27400        27.756000        8.2077500
       879.26900        27.279200        8.1060400
       893.49100        26.725100        8.0056900
       907.94300        26.076200        7.9066400
       922.62800        25.308400        7.8088800
       937.55100        24.380200        7.7070700
       952.71500        23.228800        7.6054400
       968.12400        21.747000        7.5041800
       983.78300        19.726600        7.4040400
       999.69500        16.657500        7.3052600
       1015.8600        10.497100        7.2078300
       1026.8000       -21.718500        7.1435200
       1027.0000       -21.716400        28.735500
       1032.2900        5.6124300        28.748100
       1048.9900        15.358500        28.787400
       1065.9600        19.378900        28.826900
       1083.2000        22.020200        28.866200
       1100.7200        24.029200        28.905600
       1118.5200        25.676700        28.945000
       1136.6100        27.091900        28.984400
       1155.0000        28.346700        29.023900
       1173.6800        29.485300        29.063500
       1192.6600        30.537300        29.103200
       1211.9500        31.523200        29.142900
       1231.5500        32.458300        29.182900
       1251.4700        33.354200        29.222700
       1271.7200        34.220300        29.262400
       1292.2900        35.064100        29.302200
       1313.1900        35.893100        29.342300
       1334.4300        36.714200        29.382400
       1356.0100        37.533500        29.422100
       1377.9400        38.358700        29.462400
       1400.2300        39.199700        29.502700
       1422.8800        40.070500        29.542900
       1445.8900        41.000000        29.583200
       1469.2800        42.046700        29.557800
       1493.0400        43.225900        29.432200
       1517.1900        44.290400        28.890100
       1541.7300        45.141000        28.300900
       1566.6700        45.809200        27.723600
       1592.0100        46.319600        27.158200
       1617.7600        46.523400        26.873900
       1643.9200        47.186200        27.122100
       1670.5100        48.153800        26.695400
       1697.5300        48.924400        26.155400
       1724.9900        49.544400        25.626400
       1752.8900        50.102600        25.094400
       1781.2400        50.606100        24.568700
       1810.0500        51.064800        24.050200
       1839.3200        51.485100        23.542900
       1869.0700        51.873900        23.046400
       1899.3000        52.235100        22.560300
       1930.0200        52.571800        22.084400
       1961.2400        52.886200        21.618700
       1992.9600        53.177700        21.162900
       2025.2000        53.464900        20.726700
       2057.9500        53.737400        20.278800
       2091.2400        53.985900        19.838300
       2125.0600        54.217100        19.405600
       2159.4300        54.432100        18.980400
       2194.3600        54.632500        18.563400
       2229.8500        54.819000        18.153700
       2265.9200        54.992400        17.752000
       2302.5700        55.153800        17.357600
       2339.8100        55.303300        16.970700
       2377.6600        55.441900        16.591500
       2416.1100        55.570100        16.219600
       2455.1900        55.688700        15.855200
       2494.9000        55.797600        15.497300
       2535.2600        55.897500        15.147300
       2576.2600        55.989200        14.804300
       2617.9300        56.073000        14.468000
       2660.2700        56.149000        14.138300
       2703.3000        56.217200        13.815400
       2747.0300        56.278400        13.499700
       2791.4600        56.333300        13.190400
       2836.6100        56.381400        12.887300
       2882.4900        56.423800        12.591300
       2929.1100        56.460600        12.300800
       2976.4800        56.491100        12.016300
       3024.6300        56.516200        11.738700
       3073.5500        56.536500        11.466600
       3123.2600        56.551600        11.200100
       3173.7800        56.561700        10.939800
       3225.1100        56.567300        10.685100
       3277.2700        56.568400        10.435900
       3330.2800        56.565000        10.192200
       3384.1500        56.557500        9.9537300
       3438.8800        56.545700        9.7205600
       3494.5000        56.529900        9.4925600
       3551.0200        56.510100        9.2696100
       3608.4600        56.486400        9.0516000
       3666.8200        56.458900        8.8384500
       3726.1300        56.427400        8.6300000
       3786.4000        56.392200        8.4263000
       3847.6400        56.353200        8.2271500
       3909.8700        56.310300        8.0323600
       3973.1100        56.263500        7.8420500
       4037.3800        56.212800        7.6560200
       4102.6800        56.158200        7.4742000
       4169.0300        56.099400        7.2964100
       4236.4600        56.036400        7.1227700
       4304.9800        55.969000        6.9529400
       4374.6200        55.896900        6.7869600
       4445.3700        55.820000        6.6248300
       4517.2700        55.738000        6.4663100
       4590.3300        55.650500        6.3113800
       4664.5800        55.557200        6.1600800
       4740.0300        55.457500        6.0121300
       4816.6900        55.350900        5.8675600
