;  Atomic scattering factors for Po.
;   
;  Concatenation of data from CXRO <http://www-cxro.lbl.gov>
;  and LLNL <http://www-phys.llnl.gov/V_Div/scattering/asf.html>
;  
;  E (eV) f1 f2
;---------------
       10.000000       -9999.0000        4.9276300
       10.161700       -9999.0000        4.9578400
       10.326100       -9999.0000        4.9882300
       10.493100       -9999.0000        5.0188100
       10.662800       -9999.0000        5.0495700
       10.835300       -9999.0000        5.1063400
       11.010600       -9999.0000        5.1736800
       11.188600       -9999.0000        5.2419100
       11.369600       -9999.0000        5.3110400
       11.553500       -9999.0000        5.3810800
       11.740400       -9999.0000        5.4188900
       11.930300       -9999.0000        5.4488300
       12.123200       -9999.0000        5.4789400
       12.319300       -9999.0000        5.5092200
       12.518600       -9999.0000        5.5396600
       12.721000       -9999.0000        5.5224500
       12.926800       -9999.0000        5.4890200
       13.135900       -9999.0000        5.4558000
       13.348300       -9999.0000        5.4227800
       13.564200       -9999.0000        5.3898400
       13.783600       -9999.0000        5.3511200
       14.006600       -9999.0000        5.3126700
       14.233100       -9999.0000        5.2744900
       14.463300       -9999.0000        5.2366000
       14.697300       -9999.0000        5.1989700
       14.935000       -9999.0000        5.1721300
       15.176500       -9999.0000        5.1460200
       15.422000       -9999.0000        5.1200400
       15.671400       -9999.0000        5.0941900
       15.924900       -9999.0000        5.0684800
       16.182500       -9999.0000        5.0428900
       16.444200       -9999.0000        5.0179300
       16.710200       -9999.0000        4.9964100
       16.980500       -9999.0000        4.9749800
       17.255100       -9999.0000        4.9536300
       17.534200       -9999.0000        4.9323900
       17.817800       -9999.0000        4.8444600
       18.106000       -9999.0000        4.7191900
       18.398900       -9999.0000        4.5971700
       18.696400       -9999.0000        4.4782900
       18.998800       -9999.0000        4.3609100
       19.306100       -9999.0000        4.2433900
       19.618400       -9999.0000        4.1290300
       19.935700       -9999.0000        4.0177600
       20.258200       -9999.0000        3.9094800
       20.585800       -9999.0000        3.7813200
       20.918800       -9999.0000        3.6531800
       21.257100       -9999.0000        3.5293800
       21.600900       -9999.0000        3.3974900
       21.950300       -9999.0000        3.1835900
       22.305300       -9999.0000        2.9831500
       22.666100       -9999.0000        2.7953400
       23.032700       -9999.0000        2.6380000
       23.405300       -9999.0000        2.5010300
       23.783800       -9999.0000        2.3711700
       24.168500       -9999.0000        2.2436100
       24.559400       -9999.0000        2.1174900
       24.956600       -9999.0000        1.9984600
       25.360300       -9999.0000        1.8990200
       25.770500       -9999.0000        1.8113800
       26.187300       -9999.0000        1.7277900
       26.610900       -9999.0000        1.7141700
       27.041300       -9999.0000        1.7102700
       27.478600       -9999.0000        1.6946800
       27.923100       -9999.0000        1.6624800
       28.374700       -9999.0000        1.6565900
       28.833700       -9999.0000        1.6966800
       29.300000      -0.32747400        1.7397600
       29.773900      -0.80575100        1.8062100
       30.255500       -1.4338700        1.8752000
       30.744900       -2.3884800        2.3137800
       31.242100       -3.0580000        3.3680400
       31.747500       -2.9523200        4.8509800
       32.260900       -2.4255700        5.1831300
       32.782700       -2.1565700        5.5049200
       33.313000       -1.9916100        5.8119300
       33.851800       -1.7740100        6.1353400
       34.399300       -1.5606800        6.2475600
       34.955700       -1.4288800        6.3618200
       35.521100       -1.3101900        6.4499300
       36.095600       -1.2607000        6.4830600
       36.679400       -1.2706100        6.5163600
       37.272700       -1.3271200        6.5496800
       37.875500       -1.4339200        6.5831500
       38.488200       -1.6175200        6.6168000
       39.110700       -1.8535900        6.7670800
       39.743200       -2.0669900        6.9391300
       40.386100       -2.2973800        7.1155500
       41.039300       -2.5956600        7.3448500
       41.703100       -2.8618500        7.6453600
       42.377600       -3.1352500        7.9581600
       43.063000       -3.4676300        8.2844900
       43.759500       -3.7917900        8.8005600
       44.467300       -4.0443800        9.3487800
       45.186500       -4.2565900        9.9311400
       45.917400       -4.4370400        10.557300
       46.660000       -4.5695600        11.229400
       47.414700       -4.6494900        11.944200
       48.181600       -4.6552200        12.704500
       48.960900       -4.5296500        13.513200
       49.752800       -4.3440200        14.149400
       50.557600       -4.1965300        14.800000
       51.375300       -4.0375000        15.480500
       52.206200       -3.8448900        16.192300
       53.050600       -3.5916100        16.936800
       53.908700       -3.2210900        17.715600
       54.780600       -2.8113800        18.330900
       55.666700       -2.4230300        18.967200
       56.567000       -2.0062400        19.625500
       57.482000       -1.5223300        20.306800
       58.411700      -0.87905200        20.903200
       59.356400      -0.32559300        21.370000
       60.316500       0.19699000        21.847300
       61.292100       0.71828400        22.335200
       62.283400        1.2523400        22.834000
       63.290800        1.8092100        23.343900
       64.314500        2.3989900        23.865300
       65.354700        3.0338300        24.398200
       66.411800        3.7325300        24.943100
       67.485900        4.5359900        25.500200
       68.577500        5.5823700        25.917100
       69.686700        6.4782500        26.070400
       70.813800        7.2879400        26.224500
       71.959100        8.0611400        26.379500
       73.123000        8.8205900        26.535500
       74.305700        9.5783000        26.692400
       75.507600        10.344100        26.850100
       76.728900        11.127900        27.008900
       77.969900        11.943800        27.168600
       79.231000        12.823200        27.329200
       80.512500        13.800900        27.382900
       81.814700        14.708300        27.344400
       83.138000        15.599700        27.305900
       84.482700        16.508700        27.267500
       85.849100        17.465700        27.229100
       87.237700        18.527500        27.190800
       88.648700        19.896700        27.061900
       90.082500        21.088400        26.273300
       91.539500        21.994400        25.507600
       93.020100        22.683800        24.782600
       94.524600        23.337800        24.193100
       96.053500        24.012100        23.617600
       97.607100        24.759500        23.055700
       99.185800        25.642900        22.192400
       100.79000        26.181400        21.142800
       102.42000        26.417300        20.143000
       104.07700        26.532500        19.408300
       105.76000        26.712700        18.763800
       107.47100        26.905900        18.140800
       109.20900        27.100200        17.538400
       110.97500        27.305700        16.956100
       112.77000        27.582400        16.393000
       114.59400        27.893300        15.617800
       116.44800        27.988100        14.763600
       118.33100        27.950900        13.956200
       120.24500        27.809200        13.192800
       122.19000        27.525700        12.471300
       124.16600        27.107900        12.032400
       126.17500        26.846700        11.743600
       128.21500        26.690000        11.461800
       130.28900        26.571100        11.186700
       132.39700        26.480700        10.918200
       134.53800        26.415100        10.656200
       136.71400        26.375300        10.400500
       138.92500        26.371100        10.150900
       141.17200        26.458700        9.9072600
       143.45600        26.605300        9.4665300
       145.77600        26.587300        8.9361100
       148.13400        26.479800        8.4354000
       150.53000        26.318000        7.9627300
       152.96400        26.115000        7.5165600
       155.43900        25.876100        7.0953900
       157.95300        25.593800        6.7040300
       160.50700        25.304600        6.3706300
       163.10300        25.011000        6.0538000
       165.74200        24.707300        5.7527400
       168.42200        24.388700        5.4666300
       171.14600        24.051700        5.1947700
       173.91500        23.689200        4.9364200
       176.72700        23.256000        4.6909300
       179.58600        22.827500        4.5899600
       182.49100        22.457700        4.5051400
       185.44200        22.111800        4.4219000
       188.44200        21.785500        4.3366500
       191.48900        21.450800        4.2328200
       194.58700        21.098700        4.1314800
       197.73400        20.726600        4.0325600
       200.93200        20.328800        3.9491000
       204.18200        19.912100        3.8758600
       207.48500        19.435700        3.8325800
       210.84000        18.967700        3.8412900
       214.25100        18.478900        3.8810000
       217.71600        18.005200        3.9592900
       221.23700        17.525000        4.0391700
       224.81600        16.998600        4.1582800
       228.45200        16.489400        4.3346100
       232.14700        15.954600        4.5184200
       235.90200        15.420800        4.8114500
       239.71700        14.916800        5.1329900
       243.59500        14.437100        5.4821800
       247.53500        13.968700        5.8551100
       251.53800        13.497800        6.2534300
       255.60700        13.031600        6.7040600
       259.74100        12.586600        7.1968100
       263.94200        12.160400        7.7257700
       268.21100        11.750300        8.2936100
       272.54900        11.354800        8.9087400
       276.95700        10.994300        9.5827600
       281.43700        10.679700        10.307800
       285.98900        10.455900        11.087700
       290.61500        10.285500        11.818800
       295.31500        10.119900        12.573600
       300.09200        9.9933000        13.376600
       304.94500        9.9848100        14.230900
       309.87800        10.037800        14.972600
       314.89000        10.061500        15.705100
       319.98300        10.099700        16.473500
       325.15800        10.197200        17.279400
       330.41800        10.408600        18.049000
       335.76200        10.578400        18.725300
       341.19200        10.730300        19.427000
       346.71100        10.893200        20.155000
       352.31900        11.083700        20.910300
       358.01700        11.358500        21.693900
       363.80800        11.658600        22.385600
       369.69200        11.933100        23.079700
       375.67200        12.211800        23.795300
       381.74800        12.508100        24.533100
       387.92200        12.831900        25.293700
       394.19700        13.191900        26.078000
       400.57300        13.599300        26.886500
       407.05200        14.128900        27.712100
       413.63500        14.672300        28.417500
       420.32600        15.198900        29.140800
       427.12400        15.750200        29.882500
       434.03200        16.341300        30.643100
       441.05200        16.989200        31.423100
       448.18600        17.720100        32.222900
       455.43500        18.639400        32.990500
       462.80200        19.526300        33.557400
       470.28700        20.392500        34.134000
       477.89400        21.288500        34.720500
       485.62300        22.249400        35.317100
       493.47800        23.462300        35.823300
       501.45900        24.587900        36.069800
       509.57000        25.604700        36.318100
       517.81200        26.626300        36.568100
       526.18700        27.802900        36.819800
       534.69800        28.943900        36.770100
       543.34600        29.948700        36.696900
       552.13400        30.900300        36.623800
       561.06500        31.834400        36.550900
       570.13900        32.796200        36.478100
       579.36100        33.852100        36.257000
       588.73200        34.768100        35.864900
       598.25400        35.530300        35.476900
       607.93000        36.220700        35.093200
       617.76300        36.861700        34.700200
       627.75500        37.420000        34.284400
       637.90800        37.872900        33.873700
       648.22600        38.198100        33.522100
       658.71100        38.526700        33.294000
       669.36500        38.848000        33.078600
       680.19100        39.129200        32.896800
       691.19300        39.363600        32.747800
       702.37200        39.488100        32.661400
       713.73300        39.577000        32.829400
       725.27700        39.873000        33.176600
       737.00800        40.327000        33.527400
       748.92800        40.908400        33.881900
       761.04200        41.648600        34.231200
       773.35100        42.610700        34.487500
       785.85900        43.700100        34.432800
       798.57000        44.583400        34.120800
       811.48600        45.329900        33.811900
       824.61100        46.008500        33.505700
       837.94900        46.646600        33.202200
       851.50200        47.255100        32.885200
       865.27400        47.831700        32.550400
       879.26900        48.356900        32.200600
       893.49100        48.835800        31.854700
       907.94300        49.266300        31.512300
       922.62800        49.600900        31.173500
       937.55100        49.927000        31.008600
       952.71500        50.295200        30.890600
       968.12400        50.745500        30.813400
       983.78300        51.269300        30.736300
       999.69500        51.878500        30.628900
       1015.8600        52.622400        30.489400
       1032.2900        53.303800        30.038800
       1048.9900        53.876100        29.584600
       1065.9600        54.368200        29.129000
       1083.2000        54.813000        28.679700
       1100.7200        55.221800        28.237100
       1118.5200        55.601000        27.801000
       1136.6100        55.954700        27.371000
       1155.0000        56.286000        26.947500
       1173.6800        56.597400        26.530300
       1192.6600        56.890400        26.119100
       1211.9500        57.167000        25.713800
       1231.5500        57.428100        25.314300
       1251.4700        57.674200        24.920200
       1271.7200        57.906500        24.531900
       1292.2900        58.125800        24.149500
       1313.1900        58.333000        23.772600
       1334.4300        58.528900        23.401100
       1356.0100        58.713700        23.034700
       1377.9400        58.887900        22.673600
       1400.2300        59.052400        22.317800
       1422.8800        59.208400        21.967200
       1445.8900        59.357300        21.621300
       1469.2800        59.502000        21.277000
       1493.0400        59.643400        20.932500
       1517.1900        59.769200        20.572100
       1541.7300        59.875100        20.214600
       1566.6700        59.963500        19.862600
       1592.0100        60.037700        19.515900
       1617.7600        60.098400        19.175100
       1643.9200        60.147100        18.840200
       1670.5100        60.184000        18.510200
       1697.5300        60.209300        18.185500
       1724.9900        60.230300        17.866000
       1752.8900        60.237900        17.537600
       1781.2400        60.225700        17.210300
       1810.0500        60.194400        16.885600
       1839.3200        60.143500        16.566000
       1869.0700        60.074400        16.252100
       1899.3000        59.986900        15.944000
       1930.0200        59.880900        15.641700
       1961.2400        59.755600        15.344600
       1992.9600        59.606600        15.052200
       2025.2000        59.446700        14.774100
       2057.9500        59.264800        14.483200
       2091.2400        59.048600        14.194600
       2125.0600        58.800200        13.910200
       2159.4300        58.515600        13.628400
       2194.3600        58.190900        13.351100
       2229.8500        57.820100        13.076500
       2265.9200        57.395600        12.805600
       2302.5700        56.907800        12.538200
       2339.8100        56.344000        12.274300
       2377.6600        55.686600        12.014000
       2416.1100        54.910800        11.757000
       2455.1900        53.979500        11.503400
       2494.9000        52.835100        11.253500
       2535.2600        51.378200        11.006900
       2576.2600        49.413500        10.763800
       2617.9300        46.458900        10.524200
       2660.2700        40.424500        10.288200
       2682.9000        11.504500        10.165800
       2683.1000        11.508500        26.829100
       2703.3000        39.208600        26.527100
       2747.0300        43.590000        25.892500
       2791.4600        39.460700        25.273700
       2797.9000        24.754000        25.186000
       2798.1000        24.767700        36.536100
       2836.6100        48.203600        35.786800
       2882.4900        52.681100        34.926700
       2929.1100        55.530600        34.087000
       2976.4800        57.634400        33.269000
       3024.6300        59.271500        32.471000
       3073.5500        60.565100        31.694200
       3123.2600        61.568800        30.936700
       3173.7800        62.281700        30.198400
       3225.1100        62.605300        29.477500
       3277.2700        61.978600        28.775400
       3301.8000        54.617900        28.454800
       3302.0000        54.630500        33.050900
       3330.2800        63.058800        32.633600
       3384.1500        65.393600        31.863000
       3438.8800        66.818500        31.111800
       3494.5000        67.909000        30.378500
       3551.0200        68.798300        29.664800
       3608.4600        69.538400        28.968400
       3666.8200        70.148200        28.289000
       3726.1300        70.621900        27.626300
       3786.4000        70.899500        26.981000
       3847.6400        70.264800        26.351600
       3854.0000        68.232600        26.287600
       3854.2000        68.239700        27.883400
       3909.8700        71.850100        27.293100
       3973.1100        72.640000        26.647400
       4037.3800        73.170700        26.016800
       4102.6800        74.136600        25.401100
       4149.3000        72.250900        24.976100
       4149.5000        72.258600        26.007500
       4169.0300        73.683100        25.838500
       4236.4600        74.599200        25.269700
