;  Atomic scattering factors for Pr.
;   
;  Concatenation of data from CXRO <http://www-cxro.lbl.gov>
;  and LLNL <http://www-phys.llnl.gov/V_Div/scattering/asf.html>
;  
;  E (eV) f1 f2
;---------------
       10.000000       -9999.0000        1.2632500
       10.161700       -9999.0000        1.2545500
       10.326100       -9999.0000        1.2459100
       10.493100       -9999.0000        1.2373200
       10.662800       -9999.0000        1.2287900
       10.835300       -9999.0000        1.2203300
       11.010600       -9999.0000        1.2119200
       11.188600       -9999.0000        1.2035700
       11.369600       -9999.0000        1.1952800
       11.553500       -9999.0000        1.1870400
       11.740400       -9999.0000        1.1788600
       11.930300       -9999.0000        1.1702200
       12.123200       -9999.0000        1.1601900
       12.319300       -9999.0000        1.1502500
       12.518600       -9999.0000        1.1404000
       12.721000       -9999.0000        1.1306300
       12.926800       -9999.0000        1.1209400
       13.135900       -9999.0000        1.1045300
       13.348300       -9999.0000        1.0870800
       13.564200       -9999.0000        1.0699100
       13.783600       -9999.0000        1.0530100
       14.006600       -9999.0000        1.0154900
       14.233100       -9999.0000       0.99592300
       14.463300       -9999.0000       0.97673600
       14.697300       -9999.0000       0.95792000
       14.935000       -9999.0000       0.93499400
       15.176500       -9999.0000       0.91027600
       15.422000       -9999.0000       0.88621400
       15.671400       -9999.0000       0.86278600
       15.924900       -9999.0000       0.83997800
       16.182500       -9999.0000       0.81777200
       16.444200       -9999.0000       0.79725600
       16.710200       -9999.0000       0.77813900
       16.980500       -9999.0000       0.75948100
       17.255100       -9999.0000       0.74127000
       17.534200       -9999.0000       0.72349500
       17.817800       -9999.0000       0.70614600
       18.106000       -9999.0000       0.68921400
       18.398900       -9999.0000       0.67268800
       18.696400       -9999.0000       0.65998700
       18.998800       -9999.0000       0.64880100
       19.306100       -9999.0000       0.63826000
       19.618400       -9999.0000       0.65040400
       19.935700       -9999.0000       0.67995300
       20.258200       -9999.0000       0.79703200
       20.585800       -9999.0000        1.1312700
       20.918800       -9999.0000        1.4446300
       21.257100       -9999.0000        1.6846900
       21.600900       -9999.0000        1.7933900
       21.950300       -9999.0000        1.7837900
       22.305300       -9999.0000        1.7887300
       22.666100       -9999.0000        1.8531400
       23.032700       -9999.0000        2.0251800
       23.405300       -9999.0000        2.3209800
       23.783800       -9999.0000        2.8168300
       24.168500       -9999.0000        4.2738600
       24.559400       -9999.0000        12.202500
       24.956600       -9999.0000        14.141400
       25.360300       -9999.0000        15.020300
       25.770500       -9999.0000        15.393200
       26.187300       -9999.0000        15.749300
       26.610900       -9999.0000        15.996900
       27.041300       -9999.0000        16.010000
       27.478600       -9999.0000        15.970300
       27.923100       -9999.0000        15.930600
       28.374700       -9999.0000        15.891100
       28.833700       -9999.0000        15.851700
       29.300000        9.5127700        15.355500
       29.773900        10.309300        14.865800
       30.255500        10.970400        14.391700
       30.744900        11.551100        13.932800
       31.242100        12.077900        13.488500
       31.747500        12.550800        13.011400
       32.260900        12.945900        12.542600
       32.782700        13.285300        12.090800
       33.313000        13.579400        11.655200
       33.851800        13.834700        11.235300
       34.399300        14.056100        10.830600
       34.955700        14.247400        10.440400
       35.521100        14.411800        10.064300
       36.095600        14.551900        9.7017300
       36.679400        14.670000        9.3522200
       37.272700        14.767900        9.0153100
       37.875500        14.847100        8.6905300
       38.488200        14.908900        8.3774500
       39.110700        14.954300        8.0756700
       39.743200        14.983200        7.7847300
       40.386100        14.993600        7.5042900
       41.039300        14.988800        7.2482600
       41.703100        14.982400        7.0054100
       42.377600        14.969500        6.7707000
       43.063000        14.948900        6.5438500
       43.759500        14.919900        6.3246100
       44.467300        14.882400        6.1127000
       45.186500        14.835700        5.9079000
       45.917400        14.779200        5.7099600
       46.660000        14.709100        5.5186600
       47.414700        14.615500        5.3421800
       48.181600        14.528500        5.1997700
       48.960900        14.449100        5.0611600
       49.752800        14.369300        4.9262300
       50.557600        14.286700        4.7949100
       51.375300        14.199500        4.6670900
       52.206200        14.106100        4.5426700
       53.050600        14.002700        4.4215800
       53.908700        13.879300        4.3037100
       54.780600        13.749200        4.2303100
       55.666700        13.638100        4.1658000
       56.567000        13.534000        4.1022700
       57.482000        13.432300        4.0397100
       58.411700        13.331100        3.9781100
       59.356400        13.229300        3.9174400
       60.316500        13.127400        3.8577000
       61.292100        13.023900        3.7919500
       62.283400        12.910500        3.7246700
       63.290800        12.788000        3.6586000
       64.314500        12.655000        3.5936900
       65.354700        12.505000        3.5299400
       66.411800        12.347300        3.4927300
       67.485900        12.194700        3.4592700
       68.577500        12.039800        3.4261400
       69.686700        11.879200        3.3933200
       70.813800        11.709900        3.3608200
       71.959100        11.526300        3.3286200
       73.123000        11.326600        3.3143600
       74.305700        11.132000        3.3108800
       75.507600        10.934800        3.3074000
       76.728900        10.731200        3.3039200
       77.969900        10.518900        3.3004500
       79.231000        10.296500        3.2969800
       80.512500        10.062900        3.2935100
       81.814700        9.8194100        3.2900500
       83.138000        9.5654600        3.2722300
       84.482700        9.2779400        3.2442600
       85.849100        8.9592100        3.2165400
       87.237700        8.6078100        3.1890500
       88.648700        8.2187600        3.1617900
       90.082500        7.7796900        3.1403100
       91.539500        7.3055200        3.1358500
       93.020100        6.7895900        3.1313900
       94.524600        6.2187600        3.1269400
       96.053500        5.5811200        3.1225000
       97.607100        4.8618500        3.1180700
       99.185800        4.0414300        3.1136400
       100.79000        3.0927200        3.1092100
       102.42000        1.9756500        3.1048000
       104.07700       0.62165400        3.1003900
       105.76000       -1.1221400        3.1047200
       107.47100       -3.6629100        3.2163100
       109.20900       -7.1809300        7.6402600
       110.97500       -6.2302000        7.4166500
       112.77000       -9.0000600        7.0982800
       114.59400       -12.627200        8.4192600
       116.44800       -16.921600        10.051200
       118.33100       -23.585100        12.121600
       120.24500       -39.224100        21.932800
       122.19000       -51.770800        44.111900
       124.16600       -19.735600        77.700300
       126.17500        8.1133000        77.735500
       128.21500        23.766800        67.186100
       130.28900        30.120200        56.611000
       132.39700        33.356900        50.393300
       134.53800        35.431300        44.858300
       136.71400        36.719700        40.726600
       138.92500        37.819700        37.190600
       141.17200        38.696800        33.961800
       143.45600        39.222800        31.013200
       145.77600        39.563500        28.534200
       148.13400        39.837300        26.269500
       150.53000        40.072200        24.184500
       152.96400        40.402800        22.245600
       155.43900        40.454700        19.898100
       157.95300        40.156400        17.798400
       160.50700        39.552300        15.942000
       163.10300        38.913700        14.472500
       165.74200        38.298500        13.138400
       168.42200        37.641800        11.931000
       171.14600        36.996000        10.905800
       173.91500        36.373600        9.9687500
       176.72700        35.808600        9.1122100
       179.58600        35.209700        8.1468200
       182.49100        34.325600        7.3625100
       185.44200        33.500500        6.8101100
       188.44200        32.787900        6.4301200
       191.48900        32.167400        6.0862900
       194.58700        31.602500        5.7286100
       197.73400        31.020400        5.3749500
       200.93200        30.366800        5.0431100
       204.18200        29.658700        4.8889900
       207.48500        29.085100        4.8529800
       210.84000        28.580200        4.8172300
       214.25100        28.075100        4.7817500
       217.71600        27.590900        4.8442700
       221.23700        27.187900        4.9414900
       224.81600        26.833300        5.0407100
       228.45200        26.517300        5.1522800
       232.14700        26.234700        5.2663300
       235.90200        25.979900        5.3828900
       239.71700        25.748200        5.5020400
       243.59500        25.536900        5.6238200
       247.53500        25.343600        5.7483000
       251.53800        25.166400        5.8755400
       255.60700        25.003600        6.0055900
       259.74100        24.853600        6.1385200
       263.94200        24.714600        6.2743900
       268.21100        24.581100        6.4177400
       272.54900        24.463200        6.5715000
       276.95700        24.359900        6.7289500
       281.43700        24.267400        6.8901700
       285.98900        24.183200        7.0552400
       290.61500        24.096900        7.2246300
       295.31500        24.029100        7.4355400
       300.09200        23.989500        7.6526200
       304.94500        23.977000        7.8760200
       309.87800        23.991900        8.1059400
       314.89000        24.054700        8.3425900
       319.98300        24.151100        8.5338500
       325.15800        24.239400        8.7042100
       330.41800        24.334600        8.8779600
       335.76200        24.450500        9.0552000
       341.19200        24.620500        9.2359700
       346.71100        24.789900        9.3108300
       352.31900        24.931700        9.3826300
       358.01700        25.056400        9.4549700
       363.80800        25.177300        9.5278800
       369.69200        25.298100        9.6013300
       375.67200        25.422500        9.6753700
       381.74800        25.568000        9.7404400
       387.92200        25.702700        9.7822300
       394.19700        25.826200        9.8241900
       400.57300        25.948400        9.8663400
       407.05200        26.071900        9.9086600
       413.63500        26.199400        9.9511700
       420.32600        26.336100        9.9938600
       427.12400        26.502600        10.036700
       434.03200        26.659200        10.009100
       441.05200        26.791600        9.9804800
       448.18600        26.906400        9.9519800
       455.43500        27.011600        9.9235500
       462.80200        27.109200        9.8952100
       470.28700        27.200400        9.8669500
       477.89400        27.286000        9.8387700
       485.62300        27.366700        9.8106700
       493.47800        27.443300        9.7826400
       501.45900        27.515900        9.7544700
       509.57000        27.585200        9.7263900
       517.81200        27.651700        9.6983800
       526.18700        27.716100        9.6704500
       534.69800        27.779700        9.6426200
       543.34600        27.844200        9.6148500
       552.13400        27.912200        9.5871700
       561.06500        28.002600        9.5595700
       570.13900        28.120700        9.4862900
       579.36100        28.188800        9.3534300
       588.73200        28.216800        9.2224400
       598.25400        28.218400        9.0932800
       607.93000        28.197300        8.9659300
       617.76300        28.154400        8.8403600
       627.75500        28.086500        8.7165500
       637.90800        27.999800        8.6090500
       648.22600        27.901100        8.5065200
       658.71100        27.789200        8.4052200
       669.36500        27.660600        8.3051200
       680.19100        27.514200        8.2062200
       691.19300        27.349200        8.1084900
       702.37200        27.165900        8.0119300
       713.73300        26.973000        7.9165200
       725.27700        26.754600        7.7807100
       737.00800        26.480700        7.6311100
       748.92800        26.147300        7.4843900
       761.04200        25.758800        7.3404900
       773.35100        25.309100        7.1993500
       785.85900        24.789300        7.0609300
       798.57000        24.186700        6.9251700
       811.48600        23.483700        6.7920200
       824.61100        22.655600        6.6614300
       837.94900        21.664800        6.5333500
       851.50200        20.457200        6.4150200
       865.27400        18.952200        6.3044500
       879.26900        16.992400        6.1957900
       893.49100        14.248300        6.0890000
       907.94300        9.8470500        5.9840500
       922.62800      -0.72160900        5.8809100
       928.70000       -37.324600        5.8392600
       928.90000       -37.312500        33.911300
       937.55100        2.8380700        33.776200
       952.71500        12.167400        33.543600
       968.12400        16.939300        33.312600
       983.78300        20.258300        33.083200
       999.69500        22.859500        32.855400
       1015.8600        25.041600        32.629100
       1032.2900        26.966100        32.404400
       1048.9900        28.760100        32.181200
       1065.9600        30.566800        31.771300
       1083.2000        32.099500        31.098600
       1100.7200        33.323600        30.440200
       1118.5200        34.385000        29.795600
       1136.6100        35.308600        29.164700
       1155.0000        36.111700        28.547200
       1173.6800        36.803900        27.942700
       1192.6600        37.387300        27.351100
       1211.9500        37.853100        26.772100
       1231.5500        38.146100        26.205300
       1251.4700        38.281000        25.831600
       1271.7200        38.327100        25.662000
       1292.2900        38.537900        25.740300
       1313.1900        38.875500        25.818900
       1334.4300        39.278500        25.897700
       1356.0100        39.728600        25.976500
       1377.9400        40.218600        26.055600
       1400.2300        40.746700        26.135000
       1422.8800        41.316300        26.214800
       1445.8900        41.939900        26.294600
       1469.2800        42.641700        26.315600
       1493.0400        43.245600        26.246200
       1517.1900        44.038300        26.481200
       1541.7300        45.198100        26.466300
       1566.6700        46.173200        25.920400
       1592.0100        46.918000        25.385600
       1617.7600        47.556100        24.861900
       1643.9200        48.122500        24.348800
       1670.5100        48.635200        23.846600
       1697.5300        49.104800        23.354700
       1724.9900        49.546900        22.872800
       1752.8900        49.956800        22.385200
       1781.2400        50.331500        21.902800
       1810.0500        50.675300        21.426800
       1839.3200        50.990700        20.960900
       1869.0700        51.282500        20.505100
       1899.3000        51.553300        20.059500
       1930.0200        51.805300        19.623600
       1961.2400        52.040200        19.197100
       1992.9600        52.256600        18.779600
       2025.2000        52.469300        18.380000
       2057.9500        52.670700        17.972900
       2091.2400        52.852800        17.572600
       2125.0600        53.021000        17.180400
       2159.4300        53.176900        16.795800
       2194.3600        53.321000        16.418300
       2229.8500        53.453600        16.048300
       2265.9200        53.575600        15.685900
       2302.5700        53.688200        15.330800
       2339.8100        53.791600        14.982700
       2377.6600        53.885500        14.641200
       2416.1100        53.971300        14.307700
       2455.1900        54.049000        13.980200
       2494.9000        54.119200        13.660300
       2535.2600        54.182100        13.346600
       2576.2600        54.238200        13.039900
       2617.9300        54.287700        12.739200
       2660.2700        54.331000        12.445600
       2703.3000        54.368400        12.157600
       2747.0300        54.399800        11.875800
       2791.4600        54.425500        11.600300
       2836.6100        54.446000        11.331100
       2882.4900        54.461700        11.067700
       2929.1100        54.472400        10.809800
       2976.4800        54.478200        10.557600
       3024.6300        54.479500        10.311200
       3073.5500        54.476400        10.070100
       3123.2600        54.468900        9.8343000
       3173.7800        54.457300        9.6039300
       3225.1100        54.441500        9.3787100
       3277.2700        54.421800        9.1585800
       3330.2800        54.398100        8.9433600
       3384.1500        54.370600        8.7329600
       3438.8800        54.339100        8.5274100
       3494.5000        54.303900        8.3265300
       3551.0200        54.264900        8.1302100
       3608.4600        54.222000        7.9383100
       3666.8200        54.175300        7.7508600
       3726.1300        54.124600        7.5676300
       3786.4000        54.069900        7.3887300
       3847.6400        54.011300        7.2138100
       3909.8700        53.948200        7.0429000
       3973.1100        53.880800        6.8760000
       4037.3800        53.808800        6.7129100
       4102.6800        53.732100        6.5537200
       4169.0300        53.650200        6.3980700
       4236.4600        53.562900        6.2461000
       4304.9800        53.469800        6.0975800
       4374.6200        53.370300        5.9524400
       4445.3700        53.263900        5.8107100
       4517.2700        53.149900        5.6723300
       4590.3300        53.027600        5.5371500
       4664.5800        52.895900        5.4050700
       4740.0300        52.753600        5.2760600
       4816.6900        52.599400        5.1501500
