;  Atomic scattering factors for Pt.
;   
;  Concatenation of data from CXRO <http://www-cxro.lbl.gov>
;  and LLNL <http://www-phys.llnl.gov/V_Div/scattering/asf.html>
;  
;  E (eV) f1 f2
;---------------
       10.000000       -9999.0000        2.2414000
       10.161700       -9999.0000        2.2810400
       10.326100       -9999.0000        2.3213800
       10.493100       -9999.0000        2.3624400
       10.662800       -9999.0000        2.4095500
       10.835300       -9999.0000        2.4586300
       11.010600       -9999.0000        2.5087100
       11.188600       -9999.0000        2.5598100
       11.369600       -9999.0000        2.6119500
       11.553500       -9999.0000        2.6651500
       11.740400       -9999.0000        2.7369000
       11.930300       -9999.0000        2.8112500
       12.123200       -9999.0000        2.8876100
       12.319300       -9999.0000        2.9660400
       12.518600       -9999.0000        3.0466100
       12.721000       -9999.0000        3.1293600
       12.926800       -9999.0000        3.2143600
       13.135900       -9999.0000        3.3016700
       13.348300       -9999.0000        3.4024900
       13.564200       -9999.0000        3.5094300
       13.783600       -9999.0000        3.6197200
       14.006600       -9999.0000        3.7334900
       14.233100       -9999.0000        3.8508300
       14.463300       -9999.0000        3.9713200
       14.697300       -9999.0000        4.0941000
       14.935000       -9999.0000        4.2206800
       15.176500       -9999.0000        4.3511800
       15.422000       -9999.0000        4.4857000
       15.671400       -9999.0000        4.6243900
       15.924900       -9999.0000        4.7673700
       16.182500       -9999.0000        4.9238200
       16.444200       -9999.0000        5.1149300
       16.710200       -9999.0000        5.3134600
       16.980500       -9999.0000        5.5197100
       17.255100       -9999.0000        5.7339500
       17.534200       -9999.0000        5.9565100
       17.817800       -9999.0000        6.1877100
       18.106000       -9999.0000        6.4286900
       18.398900       -9999.0000        6.6795900
       18.696400       -9999.0000        6.9402900
       18.998800       -9999.0000        7.2111600
       19.306100       -9999.0000        7.4926100
       19.618400       -9999.0000        7.7850400
       19.935700       -9999.0000        8.1086500
       20.258200       -9999.0000        8.4480300
       20.585800       -9999.0000        8.8016000
       20.918800       -9999.0000        9.1699700
       21.257100       -9999.0000        9.5537500
       21.600900       -9999.0000        9.8261700
       21.950300       -9999.0000        10.001800
       22.305300       -9999.0000        10.180500
       22.666100       -9999.0000        10.325400
       23.032700       -9999.0000        10.268600
       23.405300       -9999.0000        10.212200
       23.783800       -9999.0000        10.156100
       24.168500       -9999.0000        10.090800
       24.559400       -9999.0000        10.017900
       24.956600       -9999.0000        9.9454700
       25.360300       -9999.0000        9.8736000
       25.770500       -9999.0000        9.8022500
       26.187300       -9999.0000        9.7555000
       26.610900       -9999.0000        9.7790600
       27.041300       -9999.0000        9.8026700
       27.478600       -9999.0000        9.8263400
       27.923100       -9999.0000        9.8500700
       28.374700       -9999.0000        9.8738600
       28.833700       -9999.0000        9.9000200
       29.300000        4.7501800        10.003000
       29.773900        4.9191700        10.107000
       30.255500        5.1238300        10.212200
       30.744900        5.3675700        10.318400
       31.242100        5.6719500        10.425700
       31.747500        6.1073400        10.488500
       32.260900        6.5068200        10.299300
       32.782700        6.8227400        10.113500
       33.313000        7.1451700        9.8599900
       33.851800        7.3360600        9.5473800
       34.399300        7.4460100        9.2446800
       34.955700        7.4846800        8.9515800
       35.521100        7.4647600        8.7303300
       36.095600        7.4538800        8.5338200
       36.679400        7.4303400        8.3417100
       37.272700        7.3829000        8.1539400
       37.875500        7.3063400        7.9758200
       38.488200        7.2043300        7.8050700
       39.110700        7.0649400        7.6379800
       39.743200        6.8500100        7.4744600
       40.386100        6.5418600        7.4560500
       41.039300        6.3314400        7.5111700
       41.703100        6.1571300        7.5667100
       42.377600        5.9858000        7.6226600
       43.063000        5.7996900        7.6790100
       43.759500        5.5618700        7.7740800
       44.467300        5.3591300        7.9408500
       45.186500        5.1751400        8.1111800
       45.917400        4.9860400        8.2851600
       46.660000        4.7449400        8.4628800
       47.414700        4.4102200        8.7959100
       48.181600        4.2124300        9.2424700
       48.960900        4.0975000        9.7117100
       49.752800        4.0422500        10.204800
       50.557600        4.0566600        10.709100
       51.375300        4.1103600        11.219200
       52.206200        4.2162700        11.753500
       53.050600        4.4024000        12.313400
       53.908700        4.7265700        12.890800
       54.780600        5.0967900        13.293700
       55.666700        5.4644600        13.709300
       56.567000        5.9208200        14.137800
       57.482000        6.5275500        14.386600
       58.411700        7.0157300        14.516900
       59.356400        7.4986000        14.648300
       60.316500        7.9672300        14.567900
       61.292100        8.2279700        14.427400
       62.283400        8.2922400        14.410800
       63.290800        8.4044300        14.510100
       64.314500        8.4796100        14.610000
       65.354700        8.3954500        14.710700
       66.411800        8.3065800        15.245800
       67.485900        8.3963100        15.840700
       68.577500        8.5811100        16.626800
       69.686700        9.0959400        17.553200
       70.813800        10.065900        18.531100
       71.959100        11.250400        18.855500
       73.123000        12.424800        19.155700
       74.305700        13.894100        19.131300
       75.507600        15.122000        18.734100
       76.728900        16.061600        18.115600
       77.969900        16.817500        17.513200
       79.231000        17.457100        16.926400
       80.512500        18.056300        16.352100
       81.814700        18.554900        15.660100
       83.138000        18.925000        14.997400
       84.482700        19.170900        14.387800
       85.849100        19.425500        13.886300
       87.237700        19.746000        13.402300
       88.648700        20.124600        12.725400
       90.082500        20.264200        11.947600
       91.539500        20.245100        11.217300
       93.020100        20.032700        10.621500
       94.524600        19.888000        10.177400
       96.053500        19.771000        9.7519300
       97.607100        19.637100        9.3442200
       99.185800        19.463400        8.9535700
       100.79000        19.282800        8.6494600
       102.42000        19.124700        8.3619500
       104.07700        18.969100        8.0840000
       105.76000        18.808100        7.8152900
       107.47100        18.634200        7.5603600
       109.20900        18.457800        7.3210900
       110.97500        18.273500        7.0893900
       112.77000        18.075700        6.8650200
       114.59400        17.862300        6.6547200
       116.44800        17.637000        6.4544400
       118.33100        17.388900        6.2605300
       120.24500        17.122600        6.0921700
       122.19000        16.830400        5.9283300
       124.16600        16.454800        5.7745800
       126.17500        16.097600        5.7875400
       128.21500        15.797700        5.8005400
       130.28900        15.512400        5.8135600
       132.39700        15.206800        5.8396000
       134.53800        14.924300        5.9086400
       136.71400        14.660600        5.9784900
       138.92500        14.397400        6.0491700
       141.17200        14.117300        6.1206800
       143.45600        13.803100        6.2373200
       145.77600        13.525400        6.4008800
       148.13400        13.263300        6.5687300
       150.53000        12.993200        6.7409900
       152.96400        12.716700        6.9598400
       155.43900        12.469900        7.2061400
       157.95300        12.238800        7.4611700
       160.50700        12.012500        7.7252100
       163.10300        11.768300        8.0164600
       165.74200        11.559200        8.3605300
       168.42200        11.380600        8.7193800
       171.14600        11.228600        9.0936200
       173.91500        11.111600        9.4804300
       176.72700        11.009700        9.8550100
       179.58600        10.920300        10.244400
       182.49100        10.849100        10.649200
       185.44200        10.804900        11.069900
       188.44200        10.819100        11.507300
       191.48900        10.858200        11.872200
       194.58700        10.869800        12.227800
       197.73400        10.873100        12.594000
       200.93200        10.874200        12.971200
       204.18200        10.868600        13.359700
       207.48500        10.858700        13.795900
       210.84000        10.885400        14.265400
       214.25100        10.949200        14.751000
       217.71600        11.049500        15.253100
       221.23700        11.224600        15.750900
       224.81600        11.402200        16.211700
       228.45200        11.588200        16.686000
       232.14700        11.808200        17.174200
       235.90200        12.086300        17.676700
       239.71700        12.493700        18.121100
       243.59500        12.835500        18.434900
       247.53500        13.142500        18.754200
       251.53800        13.445200        19.078900
       255.60700        13.767900        19.409400
       259.74100        14.120400        19.683900
       263.94200        14.435100        19.923000
       268.21100        14.718900        20.165000
       272.54900        14.990600        20.409900
       276.95700        15.251500        20.657700
       281.43700        15.496300        20.916400
       285.98900        15.749500        21.195100
       290.61500        16.009600        21.477600
       295.31500        16.274300        21.763800
       300.09200        16.543400        22.053800
       304.94500        16.814000        22.350700
       309.87800        17.094900        22.656700
       314.89000        17.386600        22.966400
       319.98300        17.687900        23.279800
       325.15800        17.998500        23.597000
       330.41800        18.320100        23.919600
       335.76200        18.654700        24.246600
       341.19200        19.002900        24.577700
       346.71100        19.366100        24.913500
       352.31900        19.746900        25.253900
       358.01700        20.147200        25.598600
       363.80800        20.570500        25.948000
       369.69200        21.021100        26.302400
       375.67200        21.506800        26.661900
       381.74800        22.042700        27.026700
       387.92200        22.664200        27.370500
       394.19700        23.375200        27.659600
       400.57300        24.107000        27.757300
       407.05200        24.728600        27.778100
       413.63500        25.290700        27.799300
       420.32600        25.820000        27.820100
       427.12400        26.326800        27.841000
       434.03200        26.818200        27.862400
       441.05200        27.299100        27.884000
       448.18600        27.788300        27.900800
       455.43500        28.264000        27.892900
       462.80200        28.721000        27.866300
       470.28700        29.150000        27.830000
       477.89400        29.553800        27.795200
       485.62300        29.935800        27.759300
       493.47800        30.292000        27.723300
       501.45900        30.616900        27.688200
       509.57000        30.894300        27.653000
       517.81200        31.054000        27.656500
       526.18700        31.149800        27.798500
       534.69800        31.284700        28.205800
       543.34600        31.676200        28.753500
       552.13400        32.353600        29.310300
       561.06500        33.234400        29.537200
       570.13900        34.086500        29.585700
       579.36100        34.806000        29.509700
       588.73200        35.465200        29.412400
       598.25400        36.072900        29.301700
       607.93000        36.651900        29.190800
       617.76300        37.217600        29.081300
       627.75500        37.794400        28.969300
       637.90800        38.379000        28.812900
       648.22600        38.946900        28.592700
       658.71100        39.439100        28.331800
       669.36500        39.865100        28.073300
       680.19100        40.234200        27.855400
       691.19300        40.581100        27.671300
       702.37200        40.901900        27.516500
       713.73300        41.211800        27.439100
       725.27700        41.585000        27.415000
       737.00800        42.006500        27.390900
       748.92800        42.469600        27.366800
       761.04200        42.990100        27.338900
       773.35100        43.598400        27.269900
       785.85900        44.254200        27.058400
       798.57000        44.803600        26.731600
       811.48600        45.281400        26.408800
       824.61100        45.720000        26.089500
       837.94900        46.132100        25.773900
       851.50200        46.523400        25.457100
       865.27400        46.896200        25.138500
       879.26900        47.247500        24.818900
       893.49100        47.581700        24.503200
       907.94300        47.903500        24.191300
       922.62800        48.220400        23.883100
       937.55100        48.524600        23.559000
       952.71500        48.812400        23.234100
       968.12400        49.082000        22.909100
       983.78300        49.338600        22.588200
       999.69500        49.586600        22.268800
       1015.8600        49.831400        21.950900
       1032.2900        50.059600        21.611900
       1048.9900        50.268100        21.273900
       1065.9600        50.455500        20.937000
       1083.2000        50.626100        20.605200
       1100.7200        50.782300        20.278300
       1118.5200        50.924900        19.956100
       1136.6100        51.054600        19.638600
       1155.0000        51.172200        19.325900
       1173.6800        51.278500        19.018000
       1192.6600        51.373800        18.714300
       1211.9500        51.458800        18.415200
       1231.5500        51.534900        18.120300
       1251.4700        51.602100        17.825500
       1271.7200        51.659000        17.530100
       1292.2900        51.699100        17.233000
       1313.1900        51.723000        16.940200
       1334.4300        51.732400        16.652300
       1356.0100        51.727900        16.369100
       1377.9400        51.709600        16.090300
       1400.2300        51.677300        15.815800
       1422.8800        51.630500        15.545400
       1445.8900        51.569000        15.279300
       1469.2800        51.493300        15.016700
       1493.0400        51.402800        14.756800
       1517.1900        51.292500        14.494200
       1541.7300        51.159700        14.235300
       1566.6700        51.003900        13.980900
       1592.0100        50.824300        13.730600
       1617.7600        50.619200        13.484400
       1643.9200        50.386100        13.242100
       1670.5100        50.122100        13.004100
       1697.5300        49.823900        12.770200
       1724.9900        49.491400        12.540400
       1752.8900        49.113400        12.305800
       1781.2400        48.678900        12.072400
       1810.0500        48.178100        11.840700
       1839.3200        47.598800        11.613700
       1869.0700        46.925600        11.391000
       1899.3000        46.135500        11.172400
       1930.0200        45.193700        10.957600
       1961.2400        44.047000        10.746900
       1992.9600        42.606500        10.540700
       2025.2000        40.719300        10.343500
       2057.9500        38.017200        10.138500
       2091.2400        33.325400        9.9358400
       2121.5000       0.53721400        9.7578600
       2121.7000       0.53574900        27.428400
       2125.0600        20.395500        27.369600
       2159.4300        32.155400        26.780400
       2194.3600        29.565600        26.204600
       2201.8000        13.123200        26.084800
       2202.0000        13.143900        38.545400
       2229.8500        37.607500        37.853400
       2265.9200        42.868600        36.988100
       2302.5700        46.172400        36.143100
       2339.8100        48.615500        35.317200
       2377.6600        50.536900        34.511600
       2416.1100        52.089000        33.724200
       2455.1900        53.349400        32.955800
       2494.9000        54.352700        32.205000
       2535.2600        55.092800        31.472000
       2576.2600        55.489200        30.757000
       2617.9300        55.121400        30.058300
       2645.3000        47.432000        29.613900
       2645.5000        47.437600        34.268400
       2660.2700        55.184000        33.988500
       2703.3000        58.021500        33.194900
       2747.0300        59.560500        32.420700
       2791.4600        60.707100        31.665800
       2836.6100        61.625500        30.929700
       2882.4900        62.368800        30.211000
       2929.1100        62.943300        29.510700
       2976.4800        63.282500        28.827500
       3024.6300        62.116900        28.159900
       3026.4000        60.530900        28.135800
       3026.6000        60.533600        29.858500
       3073.5500        64.457400        29.210700
       3123.2600        65.342400        28.550300
       3173.7800        65.981000        27.906200
       3225.1100        66.441100        27.277000
       3277.2700        66.548900        26.664100
       3295.9000        64.861400        26.451000
       3296.1000        64.863600        27.580000
       3330.2800        67.305300        27.188000
       3384.1500        68.132900        26.589400
       3438.8800        68.754500        26.001100
       3494.5000        69.285600        25.423700
       3551.0200        69.756100        24.855200
       3608.4600        70.180500        24.298500
       3666.8200        70.567900        23.751900
       3726.1300        70.923500        23.215600
       3786.4000        71.249700        22.687800
       3847.6400        71.549900        22.171800
       3909.8700        71.827500        21.665500
       3973.1100        72.084500        21.169500
       4037.3800        72.321800        20.681800
       4102.6800        72.540100        20.204300
       4169.0300        72.742400        19.737200
       4236.4600        72.929000        19.278300
