;  Atomic scattering factors for Ra.
;   
;  Concatenation of data from CXRO <http://www-cxro.lbl.gov>
;  and LLNL <http://www-phys.llnl.gov/V_Div/scattering/asf.html>
;  
;  E (eV) f1 f2
;---------------
       10.000000       -9999.0000      0.041615500
       10.161700       -9999.0000      0.044789100
       10.326100       -9999.0000      0.048204700
       10.493100       -9999.0000      0.051880800
       10.662800       -9999.0000      0.055837300
       10.835300       -9999.0000      0.060095400
       11.010600       -9999.0000      0.064678400
       11.188600       -9999.0000      0.069610800
       11.369600       -9999.0000      0.074919300
       11.553500       -9999.0000      0.081023900
       11.740400       -9999.0000      0.089565800
       11.930300       -9999.0000      0.098358800
       12.123200       -9999.0000       0.10604200
       12.319300       -9999.0000       0.11432500
       12.518600       -9999.0000       0.12325600
       12.721000       -9999.0000       0.13414400
       12.926800       -9999.0000       0.14600500
       13.135900       -9999.0000       0.15922300
       13.348300       -9999.0000       0.17783000
       13.564200       -9999.0000       0.19861200
       13.783600       -9999.0000       0.21814700
       14.006600       -9999.0000       0.23823200
       14.233100       -9999.0000       0.26140400
       14.463300       -9999.0000       0.31003900
       14.697300       -9999.0000       0.34630100
       14.935000       -9999.0000       0.39432200
       15.176500       -9999.0000       0.45073800
       15.422000       -9999.0000       0.50768500
       15.671400       -9999.0000       0.60165100
       15.924900       -9999.0000       0.77410200
       16.182500       -9999.0000        1.0248800
       16.444200       -9999.0000        1.5188300
       16.710200       -9999.0000        2.2198400
       16.980500       -9999.0000        3.0729400
       17.255100       -9999.0000        3.8362700
       17.534200       -9999.0000        4.6568300
       17.817800       -9999.0000        5.5390300
       18.106000       -9999.0000        6.3365400
       18.398900       -9999.0000        7.2488900
       18.696400       -9999.0000        7.7944100
       18.998800       -9999.0000        8.3789500
       19.306100       -9999.0000        9.0073300
       19.618400       -9999.0000        9.3488200
       19.935700       -9999.0000        9.6615500
       20.258200       -9999.0000        9.9461100
       20.585800       -9999.0000        10.214000
       20.918800       -9999.0000        10.489000
       21.257100       -9999.0000        10.666600
       21.600900       -9999.0000        10.790600
       21.950300       -9999.0000        10.916100
       22.305300       -9999.0000        10.962900
       22.666100       -9999.0000        10.990200
       23.032700       -9999.0000        11.017600
       23.405300       -9999.0000        11.045100
       23.783800       -9999.0000        11.078800
       24.168500       -9999.0000        11.120100
       24.559400       -9999.0000        11.161500
       24.956600       -9999.0000        11.203000
       25.360300       -9999.0000        11.244700
       25.770500       -9999.0000        11.265400
       26.187300       -9999.0000        11.162800
       26.610900       -9999.0000        11.061200
       27.041300       -9999.0000        10.960600
       27.478600       -9999.0000        10.860800
       27.923100       -9999.0000        10.694700
       28.374700       -9999.0000        10.338000
       28.833700       -9999.0000        9.9932100
       29.300000        10.023100        9.6599300
       29.773900        10.386900        9.3138700
       30.255500        10.673100        8.8015100
       30.744900        10.837800        8.3173600
       31.242100        10.927600        7.8598200
       31.747500        10.956400        7.4274600
       32.260900        10.915600        7.0379400
       32.782700        10.875000        6.7282600
       33.313000        10.840100        6.4322100
       33.851800        10.797500        6.1491800
       34.399300        10.744900        5.8786100
       34.955700        10.682100        5.6199400
       35.521100        10.609400        5.3726600
       36.095600        10.527500        5.1362600
       36.679400        10.437800        4.9102500
       37.272700        10.344000        4.6935600
       37.875500        10.238800        4.4712500
       38.488200        10.117500        4.2594500
       39.110700        9.9837200        4.0577000
       39.743200        9.8394600        3.8654900
       40.386100        9.6854800        3.6823900
       41.039300        9.5223000        3.5079700
       41.703100        9.3504100        3.3418100
       42.377600        9.1709400        3.1835100
       43.063000        8.9865700        3.0321000
       43.759500        8.7901200        2.8762400
       44.467300        8.5781700        2.7283900
       45.186500        8.3535700        2.5881400
       45.917400        8.1169300        2.4551000
       46.660000        7.8683300        2.3289000
       47.414700        7.6077700        2.2091800
       48.181600        7.3363700        2.0956200
       48.960900        7.0558600        1.9801000
       49.752800        6.7505600        1.8649500
       50.557600        6.4230600        1.7565000
       51.375300        6.0723900        1.6543600
       52.206200        5.6911500        1.5597800
       53.050600        5.2956100        1.4969300
       53.908700        4.8929500        1.4366100
       54.780600        4.4840200        1.3665600
       55.666700        4.0155000        1.2616200
       56.567000        3.4745900        1.2000500
       57.482000        2.9231400        1.1697000
       58.411700        2.3360100        1.1401100
       59.356400        1.7009400        1.1236900
       60.316500        1.0089700        1.1214400
       61.292100       0.25475400        1.1278500
       62.283400      -0.58238900        1.1730800
       63.290800       -1.4957700        1.2371700
       64.314500       -2.5105100        1.3496400
       65.354700       -3.6545200        1.5206400
       66.411800       -4.9366800        1.7554700
       67.485900       -6.3463200        2.1485900
       68.577500       -7.8909200        2.6297200
       69.686700       -9.6351500        3.2186100
       70.813800       -11.713300        3.9393500
       71.959100       -14.529700        4.8541800
       73.123000       -17.776600        7.2488500
       74.305700       -20.992800        10.825000
       75.507600       -23.606600        16.165700
       76.728900       -23.484300        24.197600
       77.969900       -20.013300        28.918900
       79.231000       -16.577100        32.559700
       80.512500       -13.565200        34.391200
       81.814700       -11.145400        36.325700
       83.138000       -8.6746100        38.369000
       84.482700       -5.5292100        40.026800
       85.849100       -2.7968200        41.097800
       87.237700      -0.16206000        42.197600
       88.648700        2.9175800        42.949500
       90.082500        5.5723300        43.163900
       91.539500        8.0648400        43.379500
       93.020100        10.600900        43.596100
       94.524600        13.552700        43.550700
       96.053500        16.078700        42.715800
       97.607100        18.245300        41.896800
       99.185800        20.215800        41.093600
       100.79000        22.111700        40.305700
       102.42000        24.128300        39.533000
       104.07700        26.102200        38.195300
       105.76000        27.622900        36.736700
       107.47100        28.884800        35.333700
       109.20900        29.972000        33.984300
       110.97500        30.926200        32.686500
       112.77000        31.776500        31.438100
       114.59400        32.548000        30.237500
       116.44800        33.271500        29.082800
       118.33100        34.027400        27.972100
       120.24500        34.681200        26.614200
       122.19000        35.151300        25.311900
       124.16600        35.491900        24.073300
       126.17500        35.748900        22.895400
       128.21500        35.939500        21.775000
       130.28900        36.077600        20.709500
       132.39700        36.177600        19.696200
       134.53800        36.269000        18.732400
       136.71400        36.317900        17.721500
       138.92500        36.287000        16.752700
       141.17200        36.197300        15.837000
       143.45600        36.068800        14.971300
       145.77600        35.909400        14.153000
       148.13400        35.724600        13.379300
       150.53000        35.519500        12.648000
       152.96400        35.298000        11.956600
       155.43900        35.064400        11.303000
       157.95300        34.823500        10.685200
       160.50700        34.583300        10.101100
       163.10300        34.372300        9.5489800
       165.74200        34.135600        8.9162900
       168.42200        33.837500        8.3171600
       171.14600        33.497000        7.7583100
       173.91500        33.131500        7.2370000
       176.72700        32.744900        6.7507200
       179.58600        32.336600        6.2971100
       182.49100        31.886900        5.8739900
       185.44200        31.411700        5.5523700
       188.44200        30.992700        5.2907200
       191.48900        30.601400        5.0414200
       194.58700        30.223900        4.8038500
       197.73400        29.854300        4.5774900
       200.93200        29.489200        4.3617800
       204.18200        29.126200        4.1562500
       207.48500        28.766300        3.9582900
       210.84000        28.399700        3.7649600
       214.25100        28.024400        3.5810800
       217.71600        27.638700        3.4061800
       221.23700        27.233400        3.2398300
       224.81600        26.796000        3.1092500
       228.45200        26.381700        3.0207400
       232.14700        25.974000        2.9347400
       235.90200        25.556700        2.8512000
       239.71700        25.099100        2.7794300
       243.59500        24.658600        2.7858100
       247.53500        24.237700        2.7922100
       251.53800        23.809800        2.8055300
       255.60700        23.391600        2.8389800
       259.74100        22.976900        2.8728300
       263.94200        22.545600        2.9089000
       268.21100        22.112400        2.9759500
       272.54900        21.677800        3.0445500
       276.95700        21.232200        3.1147300
       281.43700        20.761200        3.1865300
       285.98900        20.245300        3.2918300
       290.61500        19.728400        3.4337200
       295.31500        19.178300        3.5817200
       300.09200        18.609500        3.8057500
       304.94500        18.051500        4.0609500
       309.87800        17.486900        4.3380300
       314.89000        16.901300        4.6359700
       319.98300        16.249900        4.9613500
       325.15800        15.603000        5.4391200
       330.41800        14.996900        5.9629000
       335.76200        14.401800        6.4992300
       341.19200        13.783800        7.0814700
       346.71100        13.141100        7.7790600
       352.31900        12.547600        8.5825700
       358.01700        12.024700        9.4690600
       363.80800        11.602000        10.398000
       369.69200        11.184800        11.330300
       375.67200        10.794400        12.346100
       381.74800        10.458400        13.453100
       387.92200        10.226600        14.659300
       394.19700        10.104900        15.889500
       400.57300        10.119400        17.199500
       407.05200        10.240400        18.451700
       413.63500        10.448800        19.769100
       420.32600        11.063200        21.069700
       427.12400        11.612400        22.022100
       434.03200        12.059500        23.017600
       441.05200        12.590000        24.058000
       448.18600        13.244900        24.987700
       455.43500        13.872400        25.837600
       462.80200        14.490100        26.716300
       470.28700        15.172000        27.625000
       477.89400        16.213000        28.459600
       485.62300        17.121500        28.911700
       493.47800        17.845100        29.371100
       501.45900        18.529900        29.837700
       509.57000        19.197900        30.311500
       517.81200        19.860000        30.787000
       526.18700        20.559300        31.270000
       534.69800        21.279200        31.673800
       543.34600        21.935500        32.023600
       552.13400        22.546800        32.377300
       561.06500        23.088400        32.734900
       570.13900        23.598500        33.194600
       579.36100        24.177900        33.725000
       588.73200        24.813400        34.263800
       598.25400        25.518500        34.811200
       607.93000        26.265100        35.315100
       617.76300        27.030700        35.813600
       627.75500        27.833100        36.319200
       637.90800        28.774800        36.799400
       648.22600        29.699300        37.151700
       658.71100        30.588000        37.507400
       669.36500        31.494800        37.870000
       680.19100        32.458300        38.255300
       691.19300        33.497900        38.644600
       702.37200        34.866800        39.037800
       713.73300        36.255900        38.900400
       725.27700        37.379500        38.631700
       737.00800        38.369300        38.363700
       748.92800        39.281600        38.097600
       761.04200        40.144100        37.832400
       773.35100        40.978300        37.557800
       785.85900        41.780700        37.246300
       798.57000        42.515200        36.905200
       811.48600        43.194900        36.567000
       824.61100        43.831600        36.232000
       837.94900        44.433900        35.900400
       851.50200        45.001300        35.557200
       865.27400        45.525400        35.201400
       879.26900        45.983400        34.834900
       893.49100        46.368200        34.472300
       907.94300        46.653800        34.113600
       922.62800        46.691900        33.758800
       937.55100        46.727700        33.905400
       952.71500        46.900500        34.182100
       968.12400        47.313100        34.575900
       983.78300        47.932500        34.974000
       999.69500        48.778000        35.302600
       1015.8600        49.948200        35.554000
       1032.2900        50.956500        35.099600
       1048.9900        51.707800        34.712400
       1065.9600        52.373200        34.402700
       1083.2000        53.011200        34.095200
       1100.7200        53.621600        33.790200
       1118.5200        54.210400        33.487400
       1136.6100        54.782400        33.186700
       1155.0000        55.342500        32.888300
       1173.6800        55.895100        32.592100
       1192.6600        56.445400        32.298100
       1211.9500        57.002000        32.006200
       1231.5500        57.588300        31.716200
       1251.4700        58.202400        31.363300
       1271.7200        58.821700        30.943000
       1292.2900        59.357500        30.441500
       1313.1900        59.826900        29.947400
       1334.4300        60.254900        29.461000
       1356.0100        60.650400        28.981700
       1377.9400        61.018300        28.509400
       1400.2300        61.362600        28.044400
       1422.8800        61.685900        27.586400
       1445.8900        61.990300        27.134800
       1469.2800        62.278400        26.689100
       1493.0400        62.552200        26.248700
       1517.1900        62.808000        25.806600
       1541.7300        63.044900        25.370600
       1566.6700        63.265000        24.941700
       1592.0100        63.470100        24.519100
       1617.7600        63.661300        24.103200
       1643.9200        63.839500        23.693600
       1670.5100        64.005300        23.290200
       1697.5300        64.159400        22.893300
       1724.9900        64.310400        22.502900
       1752.8900        64.449100        22.104000
       1781.2400        64.569600        21.706800
       1810.0500        64.672700        21.312700
       1839.3200        64.758500        20.925000
       1869.0700        64.829800        20.544000
       1899.3000        64.887000        20.169600
       1930.0200        64.930700        19.801700
       1961.2400        64.961400        19.440000
       1992.9600        64.975200        19.083700
       2025.2000        64.988500        18.744200
       2057.9500        64.990200        18.390400
       2091.2400        64.970400        18.040900
       2125.0600        64.933000        17.695200
       2159.4300        64.877800        17.354300
       2194.3600        64.804800        17.017600
       2229.8500        64.712200        16.684800
       2265.9200        64.598900        16.356500
       2302.5700        64.464200        16.033200
       2339.8100        64.306600        15.714000
       2377.6600        64.123600        15.398600
       2416.1100        63.912300        15.087300
       2455.1900        63.670500        14.780700
       2494.9000        63.394100        14.477700
       2535.2600        63.078300        14.179400
       2576.2600        62.718400        13.885700
       2617.9300        62.307000        13.596000
       2660.2700        61.835000        13.310700
       2703.3000        61.290200        13.029400
       2747.0300        60.656100        12.752300
       2791.4600        59.909300        12.479400
       2836.6100        59.015700        12.210800
       2882.4900        57.921800        11.946100
       2929.1100        56.536200        11.685400
       2976.4800        54.682700        11.428800
       3024.6300        51.938300        11.176300
       3073.5500        46.627600        10.927700
       3104.8000        16.196000        10.773800
       3105.0000        16.197400        27.276200
       3123.2600        43.384300        27.016000
       3173.7800        49.024200        26.316700
       3225.1100        48.240500        25.636800
       3248.3000        29.978400        25.338900
       3248.5000        29.989000        36.523000
       3277.2700        51.353600        36.038100
       3330.2800        56.729000        35.172200
       3384.1500        59.792200        34.328400
       3438.8800        61.981000        33.505000
       3494.5000        63.654900        32.704000
       3551.0200        64.958000        31.922800
       3608.4600        65.945700        31.161500
       3666.8200        66.603100        30.419500
       3726.1300        66.750000        29.694600
       3786.4000        64.089500        28.989500
       3791.7000        58.348400        28.928800
       3791.9000        58.357900        33.549000
       3847.6400        68.461400        32.815900
       3909.8700        70.345500        32.028300
       3973.1100        71.656000        31.259200
       4037.3800        72.695800        30.511400
       4102.6800        73.559000        29.781000
       4169.0300        74.284700        29.068900
       4236.4600        74.892700        28.375400
       4304.9800        75.382300        27.696700
       4374.6200        75.727200        27.037200
       4445.3700        76.008300        26.391900
       4489.4000        73.439700        26.003200
