;  Atomic scattering factors for Rb.
;   
;  Concatenation of data from CXRO <http://www-cxro.lbl.gov>
;  and LLNL <http://www-phys.llnl.gov/V_Div/scattering/asf.html>
;  
;  E (eV) f1 f2
;---------------
       10.000000       -9999.0000      0.069683300
       10.161700       -9999.0000      0.071042800
       10.326100       -9999.0000      0.072529200
       10.493100       -9999.0000      0.074414600
       10.662800       -9999.0000      0.076349000
       10.835300       -9999.0000      0.078333700
       11.010600       -9999.0000      0.080370000
       11.188600       -9999.0000      0.082997500
       11.369600       -9999.0000      0.085993000
       11.553500       -9999.0000      0.089096700
       11.740400       -9999.0000      0.092312300
       11.930300       -9999.0000      0.095644000
       12.123200       -9999.0000      0.099207000
       12.319300       -9999.0000       0.10375500
       12.518600       -9999.0000       0.10851100
       12.721000       -9999.0000       0.11348500
       12.926800       -9999.0000       0.11868700
       13.135900       -9999.0000       0.12535500
       13.348300       -9999.0000       0.13296800
       13.564200       -9999.0000       0.14104400
       13.783600       -9999.0000       0.15019200
       14.006600       -9999.0000       0.16077600
       14.233100       -9999.0000       0.17210500
       14.463300       -9999.0000       0.18423300
       14.697300       -9999.0000       0.19912400
       14.935000       -9999.0000       0.21876000
       15.176500       -9999.0000       0.41429400
       15.422000       -9999.0000       0.88973700
       15.671400       -9999.0000        1.9108200
       15.924900       -9999.0000        4.1037100
       16.182500       -9999.0000        8.8132200
       16.444200       -9999.0000        9.7415700
       16.710200       -9999.0000        10.263000
       16.980500       -9999.0000        10.812400
       17.255100       -9999.0000        11.391100
       17.534200       -9999.0000        12.000900
       17.817800       -9999.0000        12.643200
       18.106000       -9999.0000        13.210600
       18.398900       -9999.0000        13.634200
       18.696400       -9999.0000        14.071300
       18.998800       -9999.0000        14.522500
       19.306100       -9999.0000        14.988100
       19.618400       -9999.0000        15.468700
       19.935700       -9999.0000        15.930400
       20.258200       -9999.0000        16.323900
       20.585800       -9999.0000        16.727200
       20.918800       -9999.0000        17.140400
       21.257100       -9999.0000        17.563700
       21.600900       -9999.0000        17.997600
       21.950300       -9999.0000        18.442200
       22.305300       -9999.0000        18.897700
       22.666100       -9999.0000        19.364500
       23.032700       -9999.0000        19.744100
       23.405300       -9999.0000        19.953600
       23.783800       -9999.0000        20.165300
       24.168500       -9999.0000        20.379300
       24.559400       -9999.0000        20.595500
       24.956600       -9999.0000        20.814000
       25.360300       -9999.0000        21.034900
       25.770500       -9999.0000        21.258100
       26.187300       -9999.0000        20.938500
       26.610900       -9999.0000        20.611300
       27.041300       -9999.0000        20.289200
       27.478600       -9999.0000        19.972100
       27.923100       -9999.0000        19.617900
       28.374700       -9999.0000        18.885300
       28.833700       -9999.0000        18.180100
       29.300000        13.065500        17.501300
       29.773900        13.634300        16.847800
       30.255500        14.164400        16.218700
       30.744900        14.678700        15.613100
       31.242100        15.265800        15.030100
       31.747500        16.040100        14.216800
       32.260900        16.445100        13.181500
       32.782700        16.650500        12.221600
       33.313000        16.749800        11.331600
       33.851800        16.772200        10.506400
       34.399300        16.736700        9.7412500
       34.955700        16.656400        9.0318600
       35.521100        16.540900        8.3741300
       36.095600        16.397400        7.7643000
       36.679400        16.231500        7.1988800
       37.272700        16.047700        6.6746400
       37.875500        15.848900        6.1885800
       38.488200        15.636200        5.7378900
       39.110700        15.405600        5.3217400
       39.743200        15.175900        4.9664000
       40.386100        14.958100        4.6347900
       41.039300        14.746000        4.3253200
       41.703100        14.536800        4.0365100
       42.377600        14.330200        3.7669900
       43.063000        14.126300        3.5154600
       43.759500        13.924900        3.2807400
       44.467300        13.726400        3.0616800
       45.186500        13.530800        2.8572500
       45.917400        13.338200        2.6664600
       46.660000        13.148800        2.4884200
       47.414700        12.962800        2.3222700
       48.181600        12.780500        2.1672100
       48.960900        12.603100        2.0225000
       49.752800        12.430400        1.8815900
       50.557600        12.255400        1.7479900
       51.375300        12.080400        1.6238600
       52.206200        11.906600        1.5085600
       53.050600        11.734200        1.4014400
       53.908700        11.562900        1.3019300
       54.780600        11.392400        1.2094800
       55.666700        11.221000        1.1236000
       56.567000        11.042800        1.0438100
       57.482000        10.867700       0.99202000
       58.411700        10.707500       0.94648400
       59.356400        10.555000       0.90303800
       60.316500        10.407000       0.86158500
       61.292100        10.261900       0.82203500
       62.283400        10.118200       0.78430200
       63.290800        9.9738800       0.74830100
       64.314500        9.8219700       0.71395100
       65.354700        9.6722500       0.70230300
       66.411800        9.5343100       0.69377000
       67.485900        9.4017600       0.68534000
       68.577500        9.2707900       0.67701300
       69.686700        9.1413500       0.67305700
       70.813800        9.0156700       0.67059400
       71.959100        8.8914900       0.66813900
       73.123000        8.7660600       0.66569300
       74.305700        8.6403000       0.66795500
       75.507600        8.5161900       0.67148500
       76.728900        8.3905700       0.67630600
       77.969900        8.2658500       0.68373400
       79.231000        8.1395600       0.69124500
       80.512500        8.0110100       0.70364400
       81.814700        7.8838800       0.71850700
       83.138000        7.7571900       0.73368400
       84.482700        7.6298300       0.74918100
       85.849100        7.4998600       0.76242700
       87.237700        7.3652700       0.77558900
       88.648700        7.2251900       0.78897800
       90.082500        7.0785800       0.80259800
       91.539500        6.9201000       0.81766700
       93.020100        6.7559900       0.84092200
       94.524600        6.5856600       0.86483700
       96.053500        6.4043800       0.88943200
       97.607100        6.1989400       0.91472800
       99.185800        5.9809300       0.96597400
       100.79000        5.7525700        1.0216000
       102.42000        5.4898600        1.0834100
       104.07700        5.1967600        1.1999900
       105.76000        4.8869000        1.3503400
       107.47100        4.5115200        1.6109700
       109.20900        4.2103700        2.1088900
       110.97500        4.3629800        2.6184500
       112.77000        4.6520200        2.7743700
       114.59400        4.7581900        2.5470400
       116.44800        4.3907900        2.2594500
       118.33100        3.9456500        2.4673800
       120.24500        3.6294900        2.7292700
       122.19000        3.3636400        2.9831300
       124.16600        3.1016600        3.2605900
       126.17500        2.8425000        3.5801300
       128.21500        2.6075200        3.9430200
       130.28900        2.4045100        4.3426800
       132.39700        2.2619600        4.7828500
       134.53800        2.1488400        5.1794000
       136.71400        2.0426900        5.5988000
       138.92500        1.9830000        6.0521700
       141.17200        1.9594500        6.4746300
       143.45600        1.9351700        6.8955300
       145.77600        1.9532100        7.3437900
       148.13400        1.9793700        7.7320500
       150.53000        1.9993300        8.1378000
       152.96400        2.0270200        8.5648400
       155.43900        2.0959600        9.0142900
       157.95300        2.1831000        9.4177800
       160.50700        2.2642100        9.8250800
       163.10300        2.3447100        10.250000
       165.74200        2.4409000        10.693300
       168.42200        2.5604500        11.155700
       171.14600        2.7258900        11.638200
       173.91500        2.9207400        12.087400
       176.72700        3.1273300        12.542300
       179.58600        3.3871300        13.014300
       182.49100        3.6756700        13.437800
       185.44200        3.9671700        13.858000
       188.44200        4.3130100        14.291400
       191.48900        4.6897000        14.631400
       194.58700        5.0403900        14.938500
       197.73400        5.3698600        15.252000
       200.93200        5.7094700        15.565700
       204.18200        6.0480200        15.865100
       207.48500        6.3874600        16.170300
       210.84000        6.7366700        16.481300
       214.25100        7.1022000        16.798300
       217.71600        7.4907900        17.121400
       221.23700        7.9130000        17.450700
       224.81600        8.3882200        17.786400
       228.45200        9.0070800        18.128500
       232.14700        9.6366400        18.176900
       235.90200        10.146300        18.178500
       239.71700        10.552600        18.180200
       243.59500        10.890400        18.210900
       247.53500        11.229200        18.327200
       251.53800        11.593900        18.444300
       255.60700        11.967300        18.562100
       259.74100        12.347600        18.680700
       263.94200        12.735600        18.800000
       268.21100        13.133600        18.920000
       272.54900        13.545700        19.040900
       276.95700        13.982600        19.162500
       281.43700        14.458000        19.250400
       285.98900        14.924700        19.283600
       290.61500        15.359800        19.316800
       295.31500        15.795300        19.350100
       300.09200        16.235500        19.383500
       304.94500        16.687100        19.416900
       309.87800        17.161300        19.450400
       314.89000        17.693500        19.483900
       319.98300        18.274900        19.381600
       325.15800        18.783800        19.198600
       330.41800        19.214100        19.017200
       335.76200        19.615100        18.837600
       341.19200        19.990500        18.659600
       346.71100        20.344100        18.483400
       352.31900        20.676600        18.308800
       358.01700        20.980300        18.135800
       363.80800        21.263500        18.009600
       369.69200        21.567100        17.899700
       375.67200        21.886400        17.790800
       381.74800        22.217300        17.682300
       387.92200        22.567500        17.566000
       394.19700        22.937800        17.431900
       400.57300        23.313300        17.233400
       407.05200        23.643600        17.011800
       413.63500        23.942100        16.793500
       420.32600        24.224500        16.577800
       427.12400        24.493700        16.364800
       434.03200        24.752400        16.154400
       441.05200        25.004300        15.946700
       448.18600        25.251300        15.739500
       455.43500        25.493100        15.524500
       462.80200        25.724000        15.305800
       470.28700        25.940700        15.086400
       477.89400        26.147000        14.869500
       485.62300        26.344600        14.656300
       493.47800        26.535700        14.446200
       501.45900        26.721400        14.238900
       509.57000        26.902800        14.034400
       517.81200        27.082500        13.831200
       526.18700        27.260100        13.625500
       534.69800        27.433700        13.412900
       543.34600        27.595400        13.198600
       552.13400        27.753200        12.987400
       561.06500        27.906400        12.767000
       570.13900        28.038800        12.545600
       579.36100        28.161300        12.335000
       588.73200        28.279900        12.129300
       598.25400        28.394300        11.928000
       607.93000        28.505200        11.730400
       617.76300        28.613800        11.536000
       627.75500        28.722800        11.344100
       637.90800        28.831500        11.146400
       648.22600        28.935500        10.938800
       658.71100        29.021300        10.726600
       669.36500        29.083100        10.518400
       680.19100        29.127800        10.336800
       691.19300        29.188700        10.175300
       702.37200        29.261200        10.019900
       713.73300        29.347100        9.8487700
       725.27700        29.419200        9.6681800
       737.00800        29.481900        9.4907900
       748.92800        29.539800        9.3166600
       761.04200        29.594500        9.1456100
       773.35100        29.647300        8.9761500
       785.85900        29.698900        8.8041300
       798.57000        29.741900        8.6307800
       811.48600        29.778200        8.4609600
       824.61100        29.809800        8.2944200
       837.94900        29.837500        8.1311100
       851.50200        29.861800        7.9697700
       865.27400        29.882600        7.8101500
       879.26900        29.898300        7.6524300
       893.49100        29.909600        7.4979400
       907.94300        29.917500        7.3465200
       922.62800        29.922800        7.1981100
       937.55100        29.924900        7.0494400
       952.71500        29.922000        6.9030200
       968.12400        29.914200        6.7589400
       983.78300        29.901900        6.6178400
       999.69500        29.885200        6.4800200
       1015.8600        29.864700        6.3454300
       1032.2900        29.841400        6.2159300
       1048.9900        29.817300        6.0869600
       1065.9600        29.788100        5.9583700
       1083.2000        29.753900        5.8323900
       1100.7200        29.715400        5.7090600
       1118.5200        29.672500        5.5883100
       1136.6100        29.625400        5.4701800
       1155.0000        29.573800        5.3545000
       1173.6800        29.517700        5.2412300
       1192.6600        29.457000        5.1304000
       1211.9500        29.391500        5.0219500
       1231.5500        29.321700        4.9158400
       1251.4700        29.246900        4.8100400
       1271.7200        29.166400        4.7046300
       1292.2900        29.076800        4.5992400
       1313.1900        28.978100        4.4962800
       1334.4300        28.870600        4.3956400
       1356.0100        28.753500        4.2972500
       1377.9400        28.626200        4.2010300
       1400.2300        28.487500        4.1068800
       1422.8800        28.336100        4.0147300
       1445.8900        28.171000        3.9248600
       1469.2800        27.991200        3.8357700
       1493.0400        27.792700        3.7468200
       1517.1900        27.571000        3.6522500
       1541.7300        27.316000        3.5589800
       1566.6700        27.024700        3.4680400
       1592.0100        26.690000        3.3794400
       1617.7600        26.300700        3.2931200
       1643.9200        25.840500        3.2090200
       1670.5100        25.283500        3.1270800
       1697.5300        24.586600        3.0472300
       1724.9900        23.667800        2.9694200
       1752.8900        22.335900        2.8890000
       1781.2400        19.925500        2.8097800
       1804.3000        4.4711600        2.7478400
       1804.5000        4.4753500        11.598100
       1810.0500        15.798600        11.507800
       1839.3200        20.128400        11.047000
       1863.8000        14.377100        10.681300
       1864.0000        14.391800        14.889000
       1869.0700        19.821800        14.837000
       1899.3000        23.485200        14.533900
       1930.0200        25.107400        14.237000
       1961.2400        26.206500        13.946200
       1992.9600        26.996100        13.661300
       2025.2000        27.508900        13.385500
       2057.9500        27.210400        13.112200
       2065.0000        25.330200        13.054700
       2065.2000        25.340200        14.748600
       2091.2400        28.655200        14.508900
       2125.0600        29.664000        14.207700
       2159.4300        30.410200        13.909200
       2194.3600        31.031700        13.613200
       2229.8500        31.571800        13.319900
       2265.9200        32.051200        13.030100
       2302.5700        32.482000        12.743500
       2339.8100        32.872400        12.460600
       2377.6600        33.228700        12.181300
       2416.1100        33.555200        11.905600
       2455.1900        33.855000        11.634000
       2494.9000        34.131300        11.366500
       2535.2600        34.386700        11.103000
       2576.2600        34.622600        10.843500
       2617.9300        34.841300        10.588500
       2660.2700        35.043800        10.337400
       2703.3000        35.231400        10.090800
       2747.0300        35.405300        9.8483300
       2791.4600        35.566700        9.6103800
       2836.6100        35.716200        9.3768900
       2882.4900        35.854800        9.1475700
       2929.1100        35.983200        8.9227400
       2976.4800        36.102200        8.7023100
       3024.6300        36.212100        8.4861600
       3073.5500        36.313900        8.2744400
       3123.2600        36.407400        8.0667500
       3173.7800        36.494300        7.8636100
       3225.1100        36.573800        7.6647700
       3277.2700        36.647000        7.4699000
       3330.2800        36.713800        7.2791600
       3384.1500        36.775200        7.0928800
       3438.8800        36.831200        6.9104400
       3494.5000        36.882000        6.7320700
       3551.0200        36.928000        6.5577200
       3608.4600        36.969600        6.3873000
       3666.8200        37.006900        6.2207800
       3726.1300        37.040200        6.0580600
       3786.4000        37.069700        5.8990800
       3847.6400        37.095700        5.7438500
       3909.8700        37.118400        5.5922700
       3973.1100        37.137900        5.4443300
       4037.3800        37.154500        5.2998400
       4102.6800        37.168300        5.1588800
       4169.0300        37.179500        5.0212900
       4236.4600        37.188200        4.8870700
       4304.9800        37.194500        4.7561200
       4374.6200        37.198800        4.6284500
       4445.3700        37.200900        4.5038400
       4517.2700        37.201100        4.3824100
