;  Atomic scattering factors for Re.
;   
;  Concatenation of data from CXRO <http://www-cxro.lbl.gov>
;  and LLNL <http://www-phys.llnl.gov/V_Div/scattering/asf.html>
;  
;  E (eV) f1 f2
;---------------
       10.000000       -9999.0000        1.8209000
       10.161700       -9999.0000        1.9114500
       10.326100       -9999.0000        2.0065000
       10.493100       -9999.0000        2.1062900
       10.662800       -9999.0000        2.2110300
       10.835300       -9999.0000        2.2875300
       11.010600       -9999.0000        2.3602000
       11.188600       -9999.0000        2.4351800
       11.369600       -9999.0000        2.5125500
       11.553500       -9999.0000        2.5923700
       11.740400       -9999.0000        2.6759800
       11.930300       -9999.0000        2.7627200
       12.123200       -9999.0000        2.8522700
       12.319300       -9999.0000        2.9447200
       12.518600       -9999.0000        3.0401700
       12.721000       -9999.0000        3.1401200
       12.926800       -9999.0000        3.2436100
       13.135900       -9999.0000        3.3505200
       13.348300       -9999.0000        3.4609500
       13.564200       -9999.0000        3.5762200
       13.783600       -9999.0000        3.7051200
       14.006600       -9999.0000        3.8386700
       14.233100       -9999.0000        3.9770300
       14.463300       -9999.0000        4.1203900
       14.697300       -9999.0000        4.2583800
       14.935000       -9999.0000        4.3856500
       15.176500       -9999.0000        4.5167300
       15.422000       -9999.0000        4.6517100
       15.671400       -9999.0000        4.7907300
       15.924900       -9999.0000        4.9346300
       16.182500       -9999.0000        5.0897400
       16.444200       -9999.0000        5.2497200
       16.710200       -9999.0000        5.4147200
       16.980500       -9999.0000        5.5849100
       17.255100       -9999.0000        5.7604600
       17.534200       -9999.0000        5.9415100
       17.817800       -9999.0000        6.1282600
       18.106000       -9999.0000        6.2990700
       18.398900       -9999.0000        6.4656400
       18.696400       -9999.0000        6.6366200
       18.998800       -9999.0000        6.8121100
       19.306100       -9999.0000        6.9770700
       19.618400       -9999.0000        7.0763700
       19.935700       -9999.0000        7.1770800
       20.258200       -9999.0000        7.2792200
       20.585800       -9999.0000        7.3828100
       20.918800       -9999.0000        7.4878800
       21.257100       -9999.0000        7.5944500
       21.600900       -9999.0000        7.6334800
       21.950300       -9999.0000        7.6677600
       22.305300       -9999.0000        7.7021900
       22.666100       -9999.0000        7.7367800
       23.032700       -9999.0000        7.7715100
       23.405300       -9999.0000        7.7660100
       23.783800       -9999.0000        7.7097600
       24.168500       -9999.0000        7.6539200
       24.559400       -9999.0000        7.5984900
       24.956600       -9999.0000        7.5303900
       25.360300       -9999.0000        7.2837800
       25.770500       -9999.0000        7.0452400
       26.187300       -9999.0000        6.8145200
       26.610900       -9999.0000        6.5681700
       27.041300       -9999.0000        6.3006500
       27.478600       -9999.0000        6.0440200
       27.923100       -9999.0000        5.7978400
       28.374700       -9999.0000        5.5709000
       28.833700       -9999.0000        5.3529700
       29.300000        7.4598000        5.1435700
       29.773900        7.3629400        4.9423700
       30.255500        7.2467800        4.7403700
       30.744900        7.0831400        4.5344100
       31.242100        6.8586100        4.3373900
       31.747500        6.5394600        4.2425200
       32.260900        6.2966800        4.2270500
       32.782700        6.0731400        4.2116400
       33.313000        5.8436700        4.2023800
       33.851800        5.6147400        4.2070000
       34.399300        5.3752400        4.2116100
       34.955700        5.1014600        4.2162400
       35.521100        4.8033100        4.2845300
       36.095600        4.5115700        4.3609200
       36.679400        4.1997800        4.4386700
       37.272700        3.8350300        4.5178100
       37.875500        3.3651900        4.6363200
       38.488200        2.7541400        4.7972300
       39.110700        2.1347700        5.4140500
       39.743200        1.6935400        6.1101900
       40.386100        1.3832400        6.8958400
       41.039300        1.2272600        7.7825100
       41.703100        1.3422400        8.7831900
       42.377600        1.5998500        9.4548800
       43.063000        1.8537200        10.172900
       43.759500        2.2821400        10.945400
       44.467300        3.0114300        11.404200
       45.186500        3.5029300        11.646500
       45.917400        3.8962000        11.894000
       46.660000        4.2983200        12.146700
       47.414700        4.7415900        12.277800
       48.181600        5.0556600        12.338900
       48.960900        5.2219700        12.336400
       49.752800        5.2617000        12.516000
       50.557600        5.3114700        12.750700
       51.375300        5.2095600        13.068000
       52.206200        5.3143300        13.809700
       53.050600        5.6448000        14.526100
       53.908700        6.2501300        15.135500
       54.780600        6.8389900        15.627100
       55.666700        7.5040700        16.134700
       56.567000        8.2962300        16.485800
       57.482000        9.4129800        16.791500
       58.411700        10.277600        16.722300
       59.356400        11.024200        16.643900
       60.316500        11.745500        16.560300
       61.292100        12.498500        16.477200
       62.283400        13.327800        16.247500
       63.290800        14.045500        15.919700
       64.314500        14.785800        15.541100
       65.354700        15.453900        15.045300
       66.411800        16.098800        14.368400
       67.485900        16.455100        13.590800
       68.577500        16.587500        12.855400
       69.686700        16.627200        12.375400
       70.813800        16.701900        11.934800
       71.959100        16.778900        11.510000
       73.123000        16.835600        11.100300
       74.305700        16.870000        10.705100
       75.507600        16.881100        10.324000
       76.728900        16.867600        9.9565400
       77.969900        16.824100        9.6038200
       79.231000        16.764200        9.2850300
       80.512500        16.692400        8.9768000
       81.814700        16.604100        8.6788200
       83.138000        16.495300        8.3907100
       84.482700        16.362600        8.1121900
       85.849100        16.194600        7.8429100
       87.237700        15.945700        7.6263300
       88.648700        15.740200        7.4841400
       90.082500        15.555000        7.3446000
       91.539500        15.360700        7.2076700
       93.020100        15.138900        7.0732800
       94.524600        14.849300        6.9996400
       96.053500        14.621000        7.0028900
       97.607100        14.419500        7.0061500
       99.185800        14.224700        7.0094000
       100.79000        14.020400        7.0126600
       102.42000        13.760600        7.0319600
       104.07700        13.531900        7.1559400
       105.76000        13.348800        7.2821000
       107.47100        13.184000        7.4104900
       109.20900        13.025700        7.5411400
       110.97500        12.851900        7.6944100
       112.77000        12.714100        7.8846300
       114.59400        12.601200        8.0795600
       116.44800        12.506500        8.2793000
       118.33100        12.428800        8.4839800
       120.24500        12.372400        8.6937300
       122.19000        12.327600        8.8901800
       124.16600        12.286100        9.0894200
       126.17500        12.251400        9.2931300
       128.21500        12.224700        9.5014100
       130.28900        12.206700        9.7143400
       132.39700        12.198200        9.9320600
       134.53800        12.200400        10.154700
       136.71400        12.215900        10.382200
       138.92500        12.254100        10.605400
       141.17200        12.290300        10.816900
       143.45600        12.330100        11.032500
       145.77600        12.377900        11.252500
       148.13400        12.438600        11.476900
       150.53000        12.533500        11.705800
       152.96400        12.632400        11.875900
       155.43900        12.705700        12.040400
       157.95300        12.766100        12.207200
       160.50700        12.816200        12.376300
       163.10300        12.850000        12.547800
       165.74200        12.861800        12.754500
       168.42200        12.897100        12.988800
       171.14600        12.951800        13.227300
       173.91500        13.016900        13.470300
       176.72700        13.092300        13.717700
       179.58600        13.179100        13.969600
       182.49100        13.289400        14.222200
       185.44200        13.399400        14.453500
       188.44200        13.504600        14.688600
       191.48900        13.611500        14.927400
       194.58700        13.721300        15.170200
       197.73400        13.834900        15.416900
       200.93200        13.952400        15.667600
       204.18200        14.073900        15.922400
       207.48500        14.197300        16.181300
       210.84000        14.323900        16.452100
       214.25100        14.462700        16.732400
       217.71600        14.612400        17.017400
       221.23700        14.772300        17.307400
       224.81600        14.943300        17.602200
       228.45200        15.126100        17.902100
       232.14700        15.322200        18.207100
       235.90200        15.533800        18.517300
       239.71700        15.764800        18.832800
       243.59500        16.043500        19.144500
       247.53500        16.318300        19.409200
       251.53800        16.582600        19.677500
       255.60700        16.851500        19.949600
       259.74100        17.129200        20.225500
       263.94200        17.419600        20.505100
       268.21100        17.727000        20.788600
       272.54900        18.058400        21.076100
       276.95700        18.474100        21.343800
       281.43700        18.859800        21.514900
       285.98900        19.205000        21.687400
       290.61500        19.540500        21.861300
       295.31500        19.871300        22.036600
       300.09200        20.201600        22.213300
       304.94500        20.533100        22.387800
       309.87800        20.864600        22.562100
       314.89000        21.197800        22.737800
       319.98300        21.535200        22.914800
       325.15800        21.878600        23.093200
       330.41800        22.230800        23.273000
       335.76200        22.596800        23.454200
       341.19200        22.996800        23.630200
       346.71100        23.387400        23.752200
       352.31900        23.764300        23.875000
       358.01700        24.135300        23.998300
       363.80800        24.506500        24.122300
       369.69200        24.881200        24.246900
       375.67200        25.262800        24.372200
       381.74800        25.668000        24.498100
       387.92200        26.095700        24.583000
       394.19700        26.490000        24.629600
       400.57300        26.860500        24.676300
       407.05200        27.213600        24.723100
       413.63500        27.541000        24.770000
       420.32600        27.842300        24.865700
       427.12400        28.174500        24.996400
       434.03200        28.541000        25.127900
       441.05200        28.935200        25.260000
       448.18600        29.353200        25.357200
       455.43500        29.762000        25.434700
       462.80200        30.162400        25.512600
       470.28700        30.565300        25.590600
       477.89400        30.972900        25.668900
       485.62300        31.387500        25.747500
       493.47800        31.811500        25.826200
       501.45900        32.248000        25.905200
       509.57000        32.701600        25.984500
       517.81200        33.180800        26.064000
       526.18700        33.705600        26.143700
       534.69800        34.388000        26.223700
       543.34600        34.911400        25.905300
       552.13400        35.329100        25.760900
       561.06500        35.713200        25.595100
       570.13900        35.985800        25.441500
       579.36100        36.266400        25.440900
       588.73200        36.588100        25.481900
       598.25400        36.973300        25.549800
       607.93000        37.408700        25.617600
       617.76300        37.896800        25.685700
       627.75500        38.478500        25.745100
       637.90800        39.140300        25.694200
       648.22600        39.813700        25.480500
       658.71100        40.353000        25.162200
       669.36500        40.794900        24.847700
       680.19100        41.171800        24.581200
       691.19300        41.540400        24.351500
       702.37200        41.931000        24.132900
       713.73300        42.322300        23.887200
       725.27700        42.685500        23.624000
       737.00800        43.027600        23.363600
       748.92800        43.355700        23.105900
       761.04200        43.674400        22.850700
       773.35100        43.988900        22.593800
       785.85900        44.296000        22.324600
       798.57000        44.580700        22.046200
       811.48600        44.847800        21.771000
       824.61100        45.101500        21.499300
       837.94900        45.345100        21.230900
       851.50200        45.579200        20.962500
       865.27400        45.803500        20.694200
       879.26900        46.015700        20.426400
       893.49100        46.217600        20.161700
       907.94300        46.411400        19.900300
       922.62800        46.601700        19.642100
       937.55100        46.783000        19.375100
       952.71500        46.953200        19.108500
       968.12400        47.111200        18.843000
       983.78300        47.260400        18.580900
       999.69500        47.403900        18.319700
       1015.8600        47.546200        18.059400
       1032.2900        47.674200        17.779500
       1048.9900        47.784900        17.500400
       1065.9600        47.877100        17.221800
       1083.2000        47.953800        16.947500
       1100.7200        48.016900        16.677300
       1118.5200        48.067200        16.411300
       1136.6100        48.105100        16.149300
       1155.0000        48.130900        15.891200
       1173.6800        48.144700        15.636800
       1192.6600        48.146700        15.386400
       1211.9500        48.137600        15.139800
       1231.5500        48.119100        14.896600
       1251.4700        48.090200        14.650500
       1271.7200        48.048100        14.400900
       1292.2900        47.982800        14.146300
       1313.1900        47.895100        13.895900
       1334.4300        47.786600        13.650000
       1356.0100        47.657100        13.408200
       1377.9400        47.505700        13.170400
       1400.2300        47.331100        12.936400
       1422.8800        47.131000        12.706200
       1445.8900        46.903400        12.480000
       1469.2800        46.646000        12.257500
       1493.0400        46.355200        12.038400
       1517.1900        46.026200        11.821900
       1541.7300        45.653400        11.608800
       1566.6700        45.230100        11.399200
       1592.0100        44.747900        11.193100
       1617.7600        44.195900        10.990800
       1643.9200        43.559700        10.792300
       1670.5100        42.819200        10.596900
       1697.5300        41.945300        10.404800
       1724.9900        40.897800        10.216000
       1752.8900        39.605500        10.025400
       1781.2400        37.948700        9.8364800
       1810.0500        35.694300        9.6495700
       1839.3200        32.255900        9.4662700
       1869.0700        24.894600        9.2864500
       1882.8000       -4.1172300        9.2055800
       1883.0000       -4.1137300        27.546900
       1899.3000        24.918700        27.160800
       1930.0200        27.768900        26.456500
       1948.8000        9.5670700        26.040400
       1949.0000        9.6033600        38.603200
       1961.2400        29.673500        38.268400
       1992.9600        37.112500        37.423500
       2025.2000        41.074800        36.605700
       2057.9500        43.895500        35.797000
       2091.2400        46.081400        35.005700
       2125.0600        47.845200        34.232200
       2159.4300        49.294100        33.475900
       2194.3600        50.484600        32.736000
       2229.8500        51.440200        32.012500
       2265.9200        52.151600        31.305400
       2302.5700        52.542200        30.613900
       2339.8100        52.234200        29.937900
       2367.2000        44.761900        29.457000
       2367.4000        44.780800        34.331700
       2377.6600        51.767700        34.101000
       2416.1100        54.988200        33.258200
       2455.1900        56.605100        32.436300
       2494.9000        57.779000        31.636300
       2535.2600        58.695000        30.855200
       2576.2600        59.407100        30.094600
       2617.9300        59.901100        29.353100
       2660.2700        59.943400        28.630600
       2681.5000        57.411400        28.279300
       2681.7000        57.424600        30.147200
       2703.3000        60.581300        29.795300
       2747.0300        61.771300        29.104100
       2791.4600        62.542100        28.429200
       2836.6100        63.121500        27.771200
       2882.4900        63.509600        27.129000
       2929.1100        62.962700        26.502700
       2931.6000        61.848600        26.470000
       2931.8000        61.856800        27.619800
       2976.4800        64.546100        27.050400
       3024.6300        65.286500        26.459300
       3073.5500        65.879000        25.876300
       3123.2600        66.393500        25.304400
       3173.7800        66.853800        24.742500
       3225.1100        67.272200        24.191400
       3277.2700        67.654100        23.648900
       3330.2800        68.005100        23.118000
       3384.1500        68.329600        22.596400
       3438.8800        68.628500        22.084100
       3494.5000        68.905000        21.582700
       3551.0200        69.161200        21.090600
       3608.4600        69.398000        20.608200
       3666.8200        69.617300        20.135400
       3726.1300        69.819900        19.671600
       3786.4000        70.007200        19.217900
       3847.6400        70.179700        18.772600
       3909.8700        70.339100        18.337900
       3973.1100        70.486000        17.910600
       4037.3800        70.620500        17.493100
       4102.6800        70.744100        17.084200
       4169.0300        70.857100        16.683900
       4236.4600        70.960100        16.292100
