;  Atomic scattering factors for Rh.
;   
;  Concatenation of data from CXRO <http://www-cxro.lbl.gov>
;  and LLNL <http://www-phys.llnl.gov/V_Div/scattering/asf.html>
;  
;  E (eV) f1 f2
;---------------
       10.000000       -9999.0000        1.1753700
       10.161700       -9999.0000        1.2404400
       10.326100       -9999.0000        1.3091200
       10.493100       -9999.0000        1.3816000
       10.662800       -9999.0000        1.4581000
       10.835300       -9999.0000        1.5388300
       11.010600       -9999.0000        1.6240300
       11.188600       -9999.0000        1.7139400
       11.369600       -9999.0000        1.8088400
       11.553500       -9999.0000        1.9089900
       11.740400       -9999.0000        2.0004200
       11.930300       -9999.0000        2.0937500
       12.123200       -9999.0000        2.1914400
       12.319300       -9999.0000        2.2936900
       12.518600       -9999.0000        2.4007000
       12.721000       -9999.0000        2.5127100
       12.926800       -9999.0000        2.6299500
       13.135900       -9999.0000        2.7526500
       13.348300       -9999.0000        2.8810800
       13.564200       -9999.0000        3.0155100
       13.783600       -9999.0000        3.1523500
       14.006600       -9999.0000        3.2828900
       14.233100       -9999.0000        3.4188400
       14.463300       -9999.0000        3.5604200
       14.697300       -9999.0000        3.7078600
       14.935000       -9999.0000        3.8614100
       15.176500       -9999.0000        4.0213200
       15.422000       -9999.0000        4.1878500
       15.671400       -9999.0000        4.3612700
       15.924900       -9999.0000        4.5245800
       16.182500       -9999.0000        4.6639200
       16.444200       -9999.0000        4.8075600
       16.710200       -9999.0000        4.9556200
       16.980500       -9999.0000        5.1082400
       17.255100       -9999.0000        5.2655600
       17.534200       -9999.0000        5.4277200
       17.817800       -9999.0000        5.5948800
       18.106000       -9999.0000        5.7671900
       18.398900       -9999.0000        5.9448100
       18.696400       -9999.0000        6.1278900
       18.998800       -9999.0000        6.3166100
       19.306100       -9999.0000        6.4991800
       19.618400       -9999.0000        6.6635800
       19.935700       -9999.0000        6.8321300
       20.258200       -9999.0000        7.0049400
       20.585800       -9999.0000        7.1821300
       20.918800       -9999.0000        7.3637900
       21.257100       -9999.0000        7.5500500
       21.600900       -9999.0000        7.7410300
       21.950300       -9999.0000        7.9368300
       22.305300       -9999.0000        8.0928100
       22.666100       -9999.0000        8.2385700
       23.032700       -9999.0000        8.3871100
       23.405300       -9999.0000        8.5383600
       23.783800       -9999.0000        8.6923500
       24.168500       -9999.0000        8.8491000
       24.559400       -9999.0000        9.0086900
       24.956600       -9999.0000        9.1711500
       25.360300       -9999.0000        9.2854700
       25.770500       -9999.0000        9.3580400
       26.187300       -9999.0000        9.4311800
       26.610900       -9999.0000        9.5048700
       27.041300       -9999.0000        9.5283700
       27.478600       -9999.0000        9.5118800
       27.923100       -9999.0000        9.4954100
       28.374700       -9999.0000        9.4789800
       28.833700       -9999.0000        9.4625800
       29.300000        4.7053400        9.4131000
       29.773900        4.9067600        9.3574000
       30.255500        5.0975500        9.3020400
       30.744900        5.2862100        9.2470000
       31.242100        5.4829000        9.1922800
       31.747500        5.7197700        9.1378900
       32.260900        5.9472200        8.9384700
       32.782700        6.0910700        8.7368600
       33.313000        6.1846300        8.5398100
       33.851800        6.2410800        8.3471900
       34.399300        6.2594100        8.1589300
       34.955700        6.2275800        7.9983400
       35.521100        6.1966900        7.8663400
       36.095600        6.1518400        7.7365100
       36.679400        6.0846100        7.6088300
       37.272700        5.9837900        7.4832500
       37.875500        5.8454800        7.3874200
       38.488200        5.6880700        7.3025700
       39.110700        5.4785400        7.2186900
       39.743200        5.2076200        7.2308100
       40.386100        4.9673200        7.2843200
       41.039300        4.6862100        7.3382300
       41.703100        4.3315500        7.5191300
       42.377600        4.0452700        7.7704700
       43.063000        3.7377500        8.0337000
       43.759500        3.4697500        8.4963600
       44.467300        3.3089300        8.9856800
       45.186500        3.2388200        9.5031700
       45.917400        3.2235500        9.9691200
       46.660000        3.2256700        10.456300
       47.414700        3.2585300        10.967300
       48.181600        3.3323200        11.503300
       48.960900        3.4544400        12.065500
       49.752800        3.6436800        12.655100
       50.557600        3.9316000        13.225000
       51.375300        4.2339100        13.775700
       52.206200        4.5816900        14.349200
       53.050600        5.0226200        14.946700
       53.908700        5.6513900        15.518100
       54.780600        6.2653200        15.859900
       55.666700        6.8313100        16.209200
       56.567000        7.4115100        16.566300
       57.482000        8.0341500        16.931100
       58.411700        8.7514500        17.304100
       59.356400        9.5902700        17.520500
       60.316500        10.356300        17.654800
       61.292100        11.112200        17.790200
       62.283400        11.931400        17.926600
       63.290800        12.936300        18.064100
       64.314500        13.938300        17.744900
       65.354700        14.733100        17.393800
       66.411800        15.435600        17.049600
       67.485900        16.088100        16.712300
       68.577500        16.714700        16.381600
       69.686700        17.341700        16.057500
       70.813800        18.007000        15.683300
       71.959100        18.614100        15.260600
       73.123000        19.216800        14.849300
       74.305700        19.882100        14.449000
       75.507600        20.809700        13.837600
       76.728900        21.372600        12.828900
       77.969900        21.694800        11.893700
       79.231000        21.877700        11.026700
       80.512500        21.970700        10.222800
       81.814700        21.999400        9.4776300
       83.138000        21.986700        8.7867200
       84.482700        21.955700        8.1125700
       85.849100        21.853700        7.4624900
       87.237700        21.702900        6.8644800
       88.648700        21.522300        6.3144200
       90.082500        21.319100        5.8084000
       91.539500        21.098000        5.3429600
       93.020100        20.861800        4.9148100
       94.524600        20.606900        4.5209700
       96.053500        20.351200        4.1874000
       97.607100        20.105000        3.8792600
       99.185800        19.864300        3.5938000
       100.79000        19.626400        3.3293500
       102.42000        19.391900        3.0843500
       104.07700        19.164300        2.8573800
       105.76000        18.946900        2.6275900
       107.47100        18.709400        2.4027200
       109.20900        18.458300        2.1971000
       110.97500        18.198700        2.0090800
       112.77000        17.923000        1.8371500
       114.59400        17.644200        1.7100000
       116.44800        17.378300        1.5979600
       118.33100        17.104800        1.4932500
       120.24500        16.813700        1.4368900
       122.19000        16.556900        1.4103400
       124.16600        16.311400        1.3842800
       126.17500        16.080600        1.3916000
       128.21500        15.870700        1.3995300
       130.28900        15.669600        1.4075100
       132.39700        15.460500        1.4214300
       134.53800        15.267900        1.4616900
       136.71400        15.092700        1.5030900
       138.92500        14.926800        1.5456600
       141.17200        14.767400        1.5894400
       143.45600        14.611200        1.6344600
       145.77600        14.447600        1.6869600
       148.13400        14.297300        1.7569700
       150.53000        14.159500        1.8298900
       152.96400        14.029800        1.9058300
       155.43900        13.907800        1.9849200
       157.95300        13.794500        2.0655600
       160.50700        13.685400        2.1464700
       163.10300        13.581400        2.2305500
       165.74200        13.483000        2.3179300
       168.42200        13.391200        2.4087300
       171.14600        13.307200        2.5030900
       173.91500        13.234000        2.6011400
       176.72700        13.188100        2.7030300
       179.58600        13.143100        2.7614700
       182.49100        13.083700        2.8199100
       185.44200        13.019000        2.8795900
       188.44200        12.951900        2.9405300
       191.48900        12.883500        3.0027600
       194.58700        12.814700        3.0663100
       197.73400        12.746700        3.1312000
       200.93200        12.684100        3.1933100
       204.18200        12.616100        3.2498500
       207.48500        12.543400        3.3073900
       210.84000        12.468400        3.3659500
       214.25100        12.391700        3.4255500
       217.71600        12.314000        3.4862000
       221.23700        12.236700        3.5479300
       224.81600        12.166100        3.6107500
       228.45200        12.091100        3.6516400
       232.14700        12.005300        3.6921000
       235.90200        11.912100        3.7330100
       239.71700        11.820700        3.7743800
       243.59500        11.718500        3.7881400
       247.53500        11.594400        3.7993000
       251.53800        11.449200        3.8104900
       255.60700        11.286400        3.8246100
       259.74100        11.108600        3.8403700
       263.94200        10.918200        3.8561900
       268.21100        10.702200        3.8540800
       272.54900        10.452800        3.8519600
       276.95700        10.166500        3.8498500
       281.43700        9.8365100        3.8477400
       285.98900        9.4417400        3.8605200
       290.61500        9.0053300        3.8971600
       295.31500        8.5142900        3.9489300
       300.09200        7.9468200        4.0086600
       304.94500        7.2442900        4.1111000
       309.87800        6.4067100        4.2713500
       314.89000        5.3627700        4.6344100
       319.98300        4.2432000        5.3422400
       325.15800        3.0466600        6.3110400
       330.41800        2.2169400        8.0563400
       335.76200        1.8508500        9.5413400
       341.19200        1.6996200        11.168900
       346.71100        1.7345900        12.751200
       352.31900        2.1771000        14.413700
       358.01700        2.8054900        15.848600
       363.80800        3.7477100        17.067400
       369.69200        4.5928000        17.957800
       375.67200        5.4372000        18.767300
       381.74800        6.3535500        19.491900
       387.92200        7.1743900        19.932200
       394.19700        7.8396400        20.382300
       400.57300        8.4700100        20.893000
       407.05200        9.1211100        21.422600
       413.63500        9.8185900        21.965700
       420.32600        10.638200        22.440500
       427.12400        11.424000        22.802500
       434.03200        12.242100        23.116000
       441.05200        12.990200        23.320400
       448.18600        13.666800        23.526500
       455.43500        14.325000        23.732900
       462.80200        14.967100        23.934900
       470.28700        15.601200        24.138500
       477.89400        16.228600        24.344000
       485.62300        16.863000        24.567700
       493.47800        17.529900        24.803300
       501.45900        18.236400        25.041200
       509.57000        19.115400        25.281400
       517.81200        19.968500        25.228400
       526.18700        20.697600        25.159200
       534.69800        21.375300        25.090300
       543.34600        22.041000        25.015900
       552.13400        22.671100        24.911500
       561.06500        23.259900        24.798800
       570.13900        23.792600        24.691100
       579.36100        24.322100        24.644200
       588.73200        24.865000        24.613300
       598.25400        25.433100        24.592800
       607.93000        26.027400        24.573300
       617.76300        26.657900        24.553100
       627.75500        27.366400        24.523700
       637.90800        28.140900        24.385900
       648.22600        28.915900        24.088900
       658.71100        29.549800        23.691200
       669.36500        30.080200        23.299100
       680.19100        30.540900        22.957500
       691.19300        30.991200        22.654100
       702.37200        31.464500        22.359800
       713.73300        31.935100        22.027800
       725.27700        32.363100        21.672400
       737.00800        32.759100        21.322200
       748.92800        33.133000        20.977900
       761.04200        33.490900        20.639000
       773.35100        33.837700        20.301500
       785.85900        34.171700        19.957600
       798.57000        34.482000        19.609600
       811.48600        34.772800        19.267500
       824.61100        35.048500        18.931300
       837.94900        35.312600        18.601100
       851.50200        35.566000        18.273000
       865.27400        35.808300        17.946600
       879.26900        36.036700        17.622600
       893.49100        36.253500        17.304400
       907.94300        36.461400        16.991900
       922.62800        36.665100        16.685000
       937.55100        36.859500        16.372000
       952.71500        37.042700        16.061800
       968.12400        37.213600        15.754900
       983.78300        37.375400        15.453900
       999.69500        37.530700        15.157300
       1015.8600        37.682600        14.864900
       1032.2900        37.824700        14.565300
       1048.9900        37.955500        14.268900
       1065.9600        38.073700        13.975800
       1083.2000        38.181600        13.688600
       1100.7200        38.280900        13.407400
       1118.5200        38.372400        13.132000
       1136.6100        38.456900        12.862200
       1155.0000        38.534700        12.598000
       1173.6800        38.606400        12.339200
       1192.6600        38.672200        12.085700
       1211.9500        38.732600        11.837400
       1231.5500        38.787600        11.594300
       1251.4700        38.837600        11.356400
       1271.7200        38.882900        11.123800
       1292.2900        38.924400        10.896500
       1313.1900        38.962100        10.673700
       1334.4300        38.996000        10.455600
       1356.0100        39.026500        10.242000
       1377.9400        39.053800        10.032500
       1400.2300        39.077900        9.8274100
       1422.8800        39.099300        9.6265300
       1445.8900        39.118700        9.4297900
       1469.2800        39.137300        9.2357400
       1493.0400        39.155700        9.0436600
       1517.1900        39.168600        8.8467800
       1541.7300        39.174200        8.6530700
       1566.6700        39.173700        8.4637300
       1592.0100        39.168700        8.2785800
       1617.7600        39.159700        8.0974000
       1643.9200        39.146800        7.9200100
       1670.5100        39.130300        7.7466800
       1697.5300        39.110500        7.5771200
       1724.9900        39.089800        7.4111900
       1752.8900        39.065400        7.2443500
       1781.2400        39.035300        7.0797700
       1810.0500        38.999800        6.9178700
       1839.3200        38.958900        6.7594600
       1869.0700        38.913100        6.6047200
       1899.3000        38.862700        6.4537200
       1930.0200        38.807900        6.3061100
       1961.2400        38.748400        6.1618300
       1992.9600        38.683300        6.0207600
       2025.2000        38.616900        5.8855500
       2057.9500        38.545700        5.7478700
       2091.2400        38.466900        5.6129000
       2125.0600        38.381500        5.4802200
       2159.4300        38.288800        5.3498900
       2194.3600        38.188400        5.2223000
       2229.8500        38.079900        5.0969500
       2265.9200        37.962200        4.9740100
       2302.5700        37.834600        4.8534700
       2339.8100        37.695800        4.7351300
       2377.6600        37.544400        4.6190700
       2416.1100        37.378800        4.5052600
       2455.1900        37.197000        4.3936500
       2494.9000        36.996200        4.2841200
       2535.2600        36.773200        4.1766900
       2576.2600        36.523700        4.0713500
       2617.9300        36.241900        3.9680400
       2660.2700        35.920200        3.8667800
       2703.3000        35.547400        3.7673600
       2747.0300        35.107400        3.6699000
       2791.4600        34.574300        3.5743400
       2836.6100        33.903900        3.4806000
       2882.4900        33.009400        3.3886900
       2929.1100        31.676000        3.2984700
       2976.4800        28.995800        3.2101100
       3003.7000        14.733000        3.1610300
       3003.9000        14.733700        11.109800
       3024.6300        28.160800        10.994100
       3073.5500        30.748800        10.729000
       3123.2600        30.808800        10.471400
       3146.0000        24.619800        10.357000
       3146.2000        24.624500        14.227900
       3173.7800        32.059900        14.039200
       3225.1100        34.037500        13.699000
       3277.2700        35.125000        13.366900
       3330.2800        35.787200        13.042600
       3384.1500        35.907300        12.726200
       3411.8000        32.729400        12.568700
       3412.0000        32.732100        14.545100
       3438.8800        36.579400        14.381400
       3494.5000        37.869500        14.052400
       3551.0200        38.708600        13.728700
       3608.4600        39.377300        13.409700
       3666.8200        39.942500        13.096200
       3726.1300        40.434400        12.788400
       3786.4000        40.870100        12.486000
       3847.6400        41.260000        12.188700
       3909.8700        41.611500        11.896900
       3973.1100        41.929900        11.609900
       4037.3800        42.219500        11.329100
       4102.6800        42.484500        11.053500
       4169.0300        42.726700        10.782800
       4236.4600        42.948900        10.518000
       4304.9800        43.153200        10.258200
       4374.6200        43.340900        10.003700
       4445.3700        43.513600        9.7544500
       4517.2700        43.672600        9.5104100
