;  Atomic scattering factors for Rn.
;   
;  Concatenation of data from CXRO <http://www-cxro.lbl.gov>
;  and LLNL <http://www-phys.llnl.gov/V_Div/scattering/asf.html>
;  
;  E (eV) f1 f2
;---------------
       10.000000       -9999.0000        2.8396400
       10.161700       -9999.0000        3.2179100
       10.326100       -9999.0000        3.6465600
       10.493100       -9999.0000        4.0508300
       10.662800       -9999.0000        4.4288000
       10.835300       -9999.0000        4.8343700
       11.010600       -9999.0000        5.2444500
       11.188600       -9999.0000        5.6893200
       11.369600       -9999.0000        6.1527700
       11.553500       -9999.0000        6.6207200
       11.740400       -9999.0000        7.1242400
       11.930300       -9999.0000        7.6660600
       12.123200       -9999.0000        8.1101200
       12.319300       -9999.0000        8.5531700
       12.518600       -9999.0000        9.0204400
       12.721000       -9999.0000        9.5132200
       12.926800       -9999.0000        9.9522900
       13.135900       -9999.0000        10.296200
       13.348300       -9999.0000        10.652000
       13.564200       -9999.0000        11.020100
       13.783600       -9999.0000        11.265700
       14.006600       -9999.0000        11.513100
       14.233100       -9999.0000        11.766000
       14.463300       -9999.0000        12.024300
       14.697300       -9999.0000        12.170700
       14.935000       -9999.0000        12.315400
       15.176500       -9999.0000        12.461800
       15.422000       -9999.0000        12.572700
       15.671400       -9999.0000        12.621900
       15.924900       -9999.0000        12.671300
       16.182500       -9999.0000        12.720800
       16.444200       -9999.0000        12.659800
       16.710200       -9999.0000        12.595800
       16.980500       -9999.0000        12.532100
       17.255100       -9999.0000        12.305900
       17.534200       -9999.0000        12.048600
       17.817800       -9999.0000        11.796600
       18.106000       -9999.0000        11.601300
       18.398900       -9999.0000        11.466400
       18.696400       -9999.0000        11.333100
       18.998800       -9999.0000        11.201400
       19.306100       -9999.0000        11.038600
       19.618400       -9999.0000        10.761100
       19.935700       -9999.0000        10.490500
       20.258200       -9999.0000        10.226700
       20.585800       -9999.0000        9.9695700
       20.918800       -9999.0000        9.7666500
       21.257100       -9999.0000        9.5699500
       21.600900       -9999.0000        9.3772200
       21.950300       -9999.0000        9.1883600
       22.305300       -9999.0000        9.0033100
       22.666100       -9999.0000        8.8219900
       23.032700       -9999.0000        8.6443300
       23.405300       -9999.0000        8.4542200
       23.783800       -9999.0000        8.2670500
       24.168500       -9999.0000        8.0840100
       24.559400       -9999.0000        7.9050300
       24.956600       -9999.0000        7.6232500
       25.360300       -9999.0000        7.3012000
       25.770500       -9999.0000        6.9927700
       26.187300       -9999.0000        6.6973600
       26.610900       -9999.0000        6.4550700
       27.041300       -9999.0000        6.2616400
       27.478600       -9999.0000        6.0740000
       27.923100       -9999.0000        5.8920000
       28.374700       -9999.0000        5.7154400
       28.833700       -9999.0000        5.5285900
       29.300000        8.7151800        5.2690700
       29.773900        8.6878600        5.0217300
       30.255500        8.6474100        4.7735100
       30.744900        8.5715900        4.5215300
       31.242100        8.4707700        4.2828400
       31.747500        8.3519800        4.0567600
       32.260900        8.2176600        3.8429800
       32.782700        8.0702000        3.6409000
       33.313000        7.9098900        3.4494500
       33.851800        7.7343600        3.2680700
       34.399300        7.5479000        3.1109800
       34.955700        7.3624700        2.9641800
       35.521100        7.1739700        2.8243000
       36.095600        6.9833100        2.6910200
       36.679400        6.7971300        2.5603000
       37.272700        6.5921100        2.4045600
       37.875500        6.3607000        2.2582900
       38.488200        6.1112800        2.1209100
       39.110700        5.8470900        1.9903100
       39.743200        5.5591400        1.8589300
       40.386100        5.2412300        1.7362400
       41.039300        4.8812700        1.6424700
       41.703100        4.5219600        1.5775900
       42.377600        4.1336900        1.5297600
       43.063000        3.7506300        1.5237600
       43.759500        3.3651900        1.5177800
       44.467300        2.9572100        1.5186500
       45.186500        2.5392200        1.5388400
       45.917400        2.1020600        1.5593000
       46.660000        1.6229600        1.5898100
       47.414700        1.1210200        1.6527300
       48.181600       0.58206700        1.7252200
       48.960900     0.0020492100        1.8162800
       49.752800      -0.66532400        1.9338600
       50.557600       -1.3647000        2.1593800
       51.375300       -2.0983300        2.4112100
       52.206200       -2.9268800        2.6924100
       53.050600       -3.9507000        3.1836700
       53.908700       -4.8886000        3.9501200
       54.780600       -5.7096100        4.9271600
       55.666700       -6.1728100        5.9227300
       56.567000       -6.7730500        6.8112700
       57.482000       -7.4641300        7.8598000
       58.411700       -8.0531300        9.1875000
       59.356400       -8.4083600        10.739500
       60.316500       -8.1893900        12.292300
       61.292100       -8.0482300        13.350900
       62.283400       -7.9970400        14.500600
       63.290800       -7.9245000        15.749400
       64.314500       -7.7253800        17.105700
       65.354700       -7.2123700        18.578800
       66.411800       -6.5914200        19.556000
       67.485900       -6.1201900        20.541800
       68.577500       -5.6745100        21.577300
       69.686700       -5.2063300        22.665000
       70.813800       -4.6864700        23.807600
       71.959100       -4.0897700        25.007700
       73.123000       -3.3859800        26.268300
       74.305700       -2.5364500        27.592500
       75.507600       -1.4496900        28.983400
       76.728900       0.15243600        30.444500
       77.969900        1.9396200        30.990900
       79.231000        3.3814400        31.398600
       80.512500        4.7136900        31.809800
       81.814700        5.9955300        32.179800
       83.138000        7.2523700        32.554100
       84.482700        8.5178300        32.932800
       85.849100        9.8223000        33.316000
       87.237700        11.196800        33.703500
       88.648700        12.712300        34.095600
       90.082500        14.623600        34.339000
       91.539500        16.367600        34.074300
       93.020100        17.962200        33.811600
       94.524600        19.663500        33.551000
       96.053500        21.349100        32.809100
       97.607100        22.800500        32.014300
       99.185800        24.218800        31.159100
       100.79000        25.411600        30.140600
       102.42000        26.391100        29.232800
       104.07700        27.528100        28.448000
       105.76000        28.844400        27.195200
       107.47100        29.706700        25.724400
       109.20900        30.252800        24.333100
       110.97500        30.628500        23.017100
       112.77000        30.854600        21.772200
       114.59400        30.900500        20.661100
       116.44800        30.964300        19.710400
       118.33100        31.010900        18.803600
       120.24500        31.020700        17.938400
       122.19000        30.972900        17.113000
       124.16600        30.868800        16.412400
       126.17500        30.812700        15.787700
       128.21500        30.787900        15.186800
       130.28900        30.774200        14.608800
       132.39700        30.774500        14.052800
       134.53800        30.805700        13.517900
       136.71400        30.984500        12.931800
       138.92500        31.021200        12.150500
       141.17200        30.920400        11.416400
       143.45600        30.758300        10.726700
       145.77600        30.551500        10.078700
       148.13400        30.308800        9.4697800
       150.53000        30.034200        8.8976600
       152.96400        29.719600        8.3601000
       155.43900        29.391000        7.9073100
       157.95300        29.075000        7.4868900
       160.50700        28.764400        7.0888200
       163.10300        28.451200        6.7119000
       165.74200        28.134100        6.3550400
       168.42200        27.812500        6.0171400
       171.14600        27.487500        5.6972200
       173.91500        27.154300        5.3887000
       176.72700        26.808600        5.0968000
       179.58600        26.448500        4.8284500
       182.49100        26.088600        4.5833300
       185.44200        25.722800        4.3506500
       188.44200        25.336000        4.1302400
       191.48900        24.948400        3.9531500
       194.58700        24.564900        3.7836500
       197.73400        24.169200        3.6214200
       200.93200        23.750500        3.4918900
       204.18200        23.342000        3.3883300
       207.48500        22.927800        3.2878400
       210.84000        22.481800        3.2222800
       214.25100        22.064800        3.2004900
       217.71600        21.658100        3.1788500
       221.23700        21.231400        3.1662300
       224.81600        20.814800        3.1824200
       228.45200        20.403100        3.1986900
       232.14700        19.977000        3.2150400
       235.90200        19.517000        3.2589500
       239.71700        19.067000        3.3341600
       243.59500        18.617700        3.4111000
       247.53500        18.140100        3.4922700
       251.53800        17.651900        3.6157200
       255.60700        17.150900        3.7435200
       259.74100        16.608100        3.8758500
       263.94200        15.984200        4.0749300
       268.21100        15.396200        4.3788600
       272.54900        14.825100        4.7054600
       276.95700        14.245300        5.0564100
       281.43700        13.623400        5.4335400
       285.98900        12.982500        5.9362800
       290.61500        12.361900        6.5008500
       295.31500        11.668900        7.1191000
       300.09200        11.035200        8.0398500
       304.94500        10.735100        9.1115300
       309.87800        10.569400        9.8981000
       314.89000        10.331600        10.670000
       319.98300        10.097900        11.502100
       325.15800        9.9534700        12.369300
       330.41800        9.8234400        13.227100
       335.76200        9.7487200        14.144500
       341.19200        9.7612000        15.032200
       346.71100        9.7679400        15.900500
       352.31900        9.8034700        16.819100
       358.01700        9.9659400        17.755200
       363.80800        10.139100        18.640100
       369.69200        10.336600        19.569000
       375.67200        10.660800        20.544200
       381.74800        11.067600        21.353500
       387.92200        11.443400        22.132100
       394.19700        11.808700        22.939200
       400.57300        12.219200        23.775600
       407.05200        12.785700        24.642600
       413.63500        13.407600        25.303700
       420.32600        13.953000        25.913600
       427.12400        14.482100        26.538200
       434.03200        15.035600        27.177900
       441.05200        15.699400        27.791400
       448.18600        16.304500        28.255000
       455.43500        16.858800        28.726400
       462.80200        17.393000        29.205600
       470.28700        17.919800        29.692800
       477.89400        18.439700        30.188200
       485.62300        18.960100        30.708300
       493.47800        19.507400        31.252900
       501.45900        20.084500        31.807200
       509.57000        20.694600        32.371300
       517.81200        21.345300        32.945400
       526.18700        22.098000        33.529800
       534.69800        22.883500        33.994900
       543.34600        23.643400        34.440200
       552.13400        24.414800        34.891400
       561.06500        25.220500        35.348400
       570.13900        26.089100        35.811500
       579.36100        27.130600        36.176800
       588.73200        28.099200        36.353400
       598.25400        28.973500        36.530900
       607.93000        29.838300        36.709200
       617.76300        30.710800        36.888500
       627.75500        31.606800        37.068600
       637.90800        32.657500        37.241100
       648.22600        33.742200        37.153200
       658.71100        34.647500        36.929100
       669.36500        35.432400        36.709400
       680.19100        36.139200        36.536800
       691.19300        36.834000        36.399100
       702.37200        37.561400        36.259400
       713.73300        38.279600        36.037800
       725.27700        38.904700        35.761000
       737.00800        39.448600        35.486600
       748.92800        39.912000        35.214200
       761.04200        40.255700        34.952800
       773.35100        40.406400        34.790500
       785.85900        40.466900        34.968300
       798.57000        40.807000        35.432700
       811.48600        41.372000        35.903000
       824.61100        42.122700        36.379800
       837.94900        43.148600        36.863200
       851.50200        44.417000        37.029200
       865.27400        45.774600        36.837500
       879.26900        46.838000        36.329900
       893.49100        47.703800        35.829000
       907.94300        48.456900        35.335000
       922.62800        49.114400        34.847900
       937.55100        49.715200        34.412300
       952.71500        50.281100        33.993500
       968.12400        50.826300        33.589500
       983.78300        51.349900        33.190600
       999.69500        51.853300        32.792900
       1015.8600        52.340700        32.396200
       1032.2900        52.773800        31.973900
       1048.9900        53.157500        31.598100
       1065.9600        53.551200        31.271700
       1083.2000        53.952300        30.948300
       1100.7200        54.351500        30.627800
       1118.5200        54.746600        30.310300
       1136.6100        55.137300        29.995400
       1155.0000        55.524300        29.683500
       1173.6800        55.908700        29.374500
       1192.6600        56.292600        29.068000
       1211.9500        56.680100        28.764200
       1231.5500        57.083700        28.463000
       1251.4700        57.502000        28.127900
       1271.7200        57.922100        27.756400
       1292.2900        58.294100        27.340600
       1313.1900        58.627300        26.930200
       1334.4300        58.935700        26.525700
       1356.0100        59.224700        26.126800
       1377.9400        59.496900        25.732900
       1400.2300        59.754600        25.344500
       1422.8800        60.000300        24.961800
       1445.8900        60.236400        24.583800
       1469.2800        60.467100        24.207100
       1493.0400        60.694500        23.829700
       1517.1900        60.903400        23.431000
       1541.7300        61.088600        23.035000
       1566.6700        61.253600        22.645300
       1592.0100        61.402900        22.261500
       1617.7600        61.538100        21.883600
       1643.9200        61.660000        21.511400
       1670.5100        61.769600        21.145100
       1697.5300        61.867600        20.784800
       1724.9900        61.962400        20.430000
       1752.8900        62.044600        20.065800
       1781.2400        62.107600        19.702800
       1810.0500        62.152400        19.342300
       1839.3200        62.179100        18.987800
       1869.0700        62.190100        18.639500
       1899.3000        62.185500        18.297100
       1930.0200        62.165500        17.960700
       1961.2400        62.130300        17.630100
       1992.9600        62.076300        17.304900
       2025.2000        62.018000        16.994300
       2057.9500        61.944500        16.670400
       2091.2400        61.845400        16.349900
       2125.0600        61.724400        16.033200
       2159.4300        61.579400        15.719700
       2194.3600        61.409900        15.410800
       2229.8500        61.212500        15.104500
       2265.9200        60.985000        14.803200
       2302.5700        60.725100        14.505200
       2339.8100        60.427400        14.210500
       2377.6600        60.087100        13.920300
       2416.1100        59.698400        13.634000
       2455.1900        59.253000        13.351100
       2494.9000        58.740000        13.072100
       2535.2600        58.145400        12.796900
       2576.2600        57.449700        12.525600
       2617.9300        56.624700        12.258100
       2660.2700        55.628500        11.994600
       2703.3000        54.393000        11.734500
       2747.0300        52.796900        11.478200
       2791.4600        50.588300        11.225800
       2836.6100        47.066200        10.977200
       2882.4900        37.361500        10.732200
       2892.3000        12.701800        10.681100
       2892.5000        12.702700        27.480000
       2929.1100        43.598200        26.945800
       2976.4800        46.049400        26.279400
       3021.4000        26.888800        25.672300
       3021.6000        26.910500        37.203000
       3024.6300        39.207300        37.145900
       3073.5500        51.417500        36.240600
       3123.2600        55.370600        35.357800
       3173.7800        57.995900        34.498500
       3225.1100        59.947100        33.660200
       3277.2700        61.449700        32.844100
       3330.2800        62.600800        32.049800
       3384.1500        63.421600        31.275100
       3438.8800        63.841800        30.520000
       3494.5000        63.680800        29.783600
       3537.9000        53.555800        29.229400
       3538.1000        53.570100        35.108000
       3551.0200        62.380900        34.892800
       3608.4600        66.448700        33.961200
       3666.8200        68.365500        33.055600
       3726.1300        69.745900        32.173900
       3786.4000        70.836900        31.317400
       3847.6400        71.729200        30.485400
       3909.8700        72.464000        29.676800
       3973.1100        73.055700        28.889900
       4037.3800        73.494600        28.124100
       4102.6800        74.649000        27.379300
       4158.9000        71.689300        26.762800
       4159.1000        71.697900        28.278800
       4169.0300        73.384300        28.178300
       4236.4600        74.694200        27.512300
       4304.9800        75.339000        26.860900
       4374.6200        75.773000        26.224500
