;  Atomic scattering factors for S.
;   
;  Concatenation of data from CXRO <http://www-cxro.lbl.gov>
;  and LLNL <http://www-phys.llnl.gov/V_Div/scattering/asf.html>
;  
;  E (eV) f1 f2
;---------------
       10.000000       -9999.0000        4.0521300
       10.161700       -9999.0000        4.2351100
       10.326100       -9999.0000        4.4263700
       10.493100       -9999.0000        4.6262500
       10.662800       -9999.0000        4.8351700
       10.835300       -9999.0000        5.0535100
       11.010600       -9999.0000        5.2817200
       11.188600       -9999.0000        5.5202400
       11.369600       -9999.0000        5.7989200
       11.553500       -9999.0000        6.1555400
       11.740400       -9999.0000        6.5340900
       11.930300       -9999.0000        6.9359300
       12.123200       -9999.0000        7.2281200
       12.319300       -9999.0000        7.4842100
       12.518600       -9999.0000        7.7493700
       12.721000       -9999.0000        8.0239400
       12.926800       -9999.0000        8.1742000
       13.135900       -9999.0000        8.3210600
       13.348300       -9999.0000        8.4705600
       13.564200       -9999.0000        8.6227500
       13.783600       -9999.0000        8.7776700
       14.006600       -9999.0000        8.9353800
       14.233100       -9999.0000        9.0959100
       14.463300       -9999.0000        9.2116300
       14.697300       -9999.0000        9.2578300
       14.935000       -9999.0000        9.3042700
       15.176500       -9999.0000        9.3509400
       15.422000       -9999.0000        9.3978400
       15.671400       -9999.0000        9.4446200
       15.924900       -9999.0000        9.4904800
       16.182500       -9999.0000        9.5365700
       16.444200       -9999.0000        9.5828800
       16.710200       -9999.0000        9.6294200
       16.980500       -9999.0000        9.5014700
       17.255100       -9999.0000        9.3539100
       17.534200       -9999.0000        9.2086500
       17.817800       -9999.0000        9.0656300
       18.106000       -9999.0000        8.9248400
       18.398900       -9999.0000        8.7862400
       18.696400       -9999.0000        8.6497800
       18.998800       -9999.0000        8.4805100
       19.306100       -9999.0000        8.3141300
       19.618400       -9999.0000        8.1510200
       19.935700       -9999.0000        7.9911200
       20.258200       -9999.0000        7.7537000
       20.585800       -9999.0000        7.5222800
       20.918800       -9999.0000        7.2977800
       21.257100       -9999.0000        7.0799600
       21.600900       -9999.0000        6.8686600
       21.950300       -9999.0000        6.6636600
       22.305300       -9999.0000        6.4647800
       22.666100       -9999.0000        6.2718300
       23.032700       -9999.0000        5.9886600
       23.405300       -9999.0000        5.7118800
       23.783800       -9999.0000        5.4479000
       24.168500       -9999.0000        5.1988600
       24.559400       -9999.0000        5.0135500
       24.956600       -9999.0000        4.8348500
       25.360300       -9999.0000        4.6625300
       25.770500       -9999.0000        4.4027800
       26.187300       -9999.0000        4.1363000
       26.610900       -9999.0000        3.8816500
       27.041300       -9999.0000        3.6048000
       27.478600       -9999.0000        3.3476900
       27.923100       -9999.0000        3.1089300
       28.374700       -9999.0000        2.8521500
       28.833700       -9999.0000        2.6078000
       29.300000        8.5135100        2.3843900
       29.773900        8.4472500        2.0957400
       30.255500        8.2990600        1.8314500
       30.744900        8.1306700        1.6639600
       31.242100        7.9894000        1.5192200
       31.747500        7.8558200        1.3870700
       32.260900        7.7261900        1.2698700
       32.782700        7.6020100        1.1634800
       33.313000        7.4804700        1.0662700
       33.851800        7.3631500       0.98111500
       34.399300        7.2506600       0.90275800
       34.955700        7.1416500       0.83057200
       35.521100        7.0350400       0.76365400
       36.095600        6.9298400       0.70212800
       36.679400        6.8247000       0.64733300
       37.272700        6.7238500       0.59919800
       37.875500        6.6255600       0.55464200
       38.488200        6.5278200       0.51472500
       39.110700        6.4327000       0.47899400
       39.743200        6.3377100       0.44574300
       40.386100        6.2421200       0.41829800
       41.039300        6.1458100       0.39352700
       41.703100        6.0402000       0.38010100
       42.377600        5.9478400       0.37891700
       43.063000        5.8605000       0.37773700
       43.759500        5.7683200       0.38418300
       44.467300        5.6877400       0.40199500
       45.186500        5.6147300       0.42063300
       45.917400        5.5467100       0.44013500
       46.660000        5.4822500       0.46054100
       47.414700        5.4201300       0.48189300
       48.181600        5.3574600       0.50423500
       48.960900        5.2956100       0.53819400
       49.752800        5.2424200       0.57692700
       50.557600        5.1949100       0.62234400
       51.375300        5.1718200       0.66966200
       52.206200        5.1487200       0.69665900
       53.050600        5.1236200       0.72474500
       53.908700        5.1017800       0.75229800
       54.780600        5.0791500       0.77583200
       55.666700        5.0556400       0.80010200
       56.567000        5.0313800       0.82636000
       57.482000        5.0116400       0.85806300
       58.411700        5.0007400       0.89098200
       59.356400        4.9966500       0.91030400
       60.316500        4.9852000       0.92549200
       61.292100        4.9671100       0.94335700
       62.283400        4.9524800       0.96741800
       63.290800        4.9422700       0.99209100
       64.314500        4.9380500        1.0150200
       65.354700        4.9329400        1.0321300
       66.411800        4.9276000        1.0495400
       67.485900        4.9245700        1.0672400
       68.577500        4.9225500        1.0794400
       69.686700        4.9185300        1.0908100
       70.813800        4.9146300        1.1023000
       71.959100        4.9134100        1.1139100
       73.123000        4.9143300        1.1170800
       74.305700        4.9080100        1.1162400
       75.507600        4.8954000        1.1168200
       76.728900        4.8829600        1.1230100
       77.969900        4.8719100        1.1292300
       79.231000        4.8632000        1.1347000
       80.512500        4.8531800        1.1362900
       81.814700        4.8414300        1.1365900
       83.138000        4.8271500        1.1361200
       84.482700        4.8108600        1.1356400
       85.849100        4.7930100        1.1351500
       87.237700        4.7737900        1.1346700
       88.648700        4.7535300        1.1337500
       90.082500        4.7314700        1.1323100
       91.539500        4.7084000        1.1301800
       93.020100        4.6825400        1.1268700
       94.524600        4.6542900        1.1235700
       96.053500        4.6238800        1.1202700
       97.607100        4.5916000        1.1169700
       99.185800        4.5582800        1.1136700
       100.79000        4.5252300        1.1063200
       102.42000        4.4846000        1.0949200
       104.07700        4.4381400        1.0838500
       105.76000        4.3862200        1.0728900
       107.47100        4.3276400        1.0630200
       109.20900        4.2649300        1.0558300
       110.97500        4.1974600        1.0506900
       112.77000        4.1280800        1.0466200
       114.59400        4.0544200        1.0417500
       116.44800        3.9753000        1.0348500
       118.33100        3.8887300        1.0274100
       120.24500        3.7942600        1.0199600
       122.19000        3.6914100        1.0125900
       124.16600        3.5793200        1.0052900
       126.17500        3.4568700       0.99803700
       128.21500        3.3227100       0.99082600
       130.28900        3.1752400       0.98365000
       132.39700        3.0126300       0.97645300
       134.53800        2.8320100       0.96831400
       136.71400        2.6292500       0.95985300
       138.92500        2.4003600       0.95146600
       141.17200        2.1397700       0.94315000
       143.45600        1.8397100       0.93490700
       145.77600        1.4890700       0.92674200
       148.13400        1.0713100       0.91919800
       150.53000       0.56112800       0.91264000
       152.96400     -0.084329600       0.90730300
       155.43900      -0.95059600       0.90199500
       157.95300       -2.2418100       0.89671900
       160.50700       -4.7075200       0.89147700
       162.40000       -13.815800       0.88766800
       162.60000       -13.808900        10.500700
       163.10300       -8.2950100        10.497000
       165.74200       -3.0865900        10.477900
       168.42200       -1.1812700        10.458900
       171.14600      0.037159900        10.439900
       173.91500       0.94791500        10.420900
       176.72700        1.6840700        10.402000
       179.58600        2.3088600        10.383100
       182.49100        2.8629100        10.361800
       185.44200        3.3553800        10.328400
       188.44200        3.8008000        10.292700
       191.48900        4.2117200        10.252000
       194.58700        4.5857600        10.199400
       197.73400        4.9284500        10.143500
       200.93200        5.2399100        10.084800
       204.18200        5.5240600        10.026400
       207.48500        5.7810600        9.9682600
       210.84000        5.9994200        9.9105200
       214.25100        6.2034300        9.9044100
       217.71600        6.4087400        9.9093500
       221.23700        6.6250600        9.9230700
       224.81600        6.8444300        9.9367500
       228.45200        7.0646500        9.9505000
       232.14700        7.2853200        9.9643100
       235.90200        7.5064400        9.9780600
       239.71700        7.7283700        9.9918300
       243.59500        7.9516100        10.005600
       247.53500        8.1770100        10.019500
       251.53800        8.4056500        10.033400
       255.60700        8.6386600        10.047200
       259.74100        8.8778500        10.061100
       263.94200        9.1260000        10.075000
       268.21100        9.3876400        10.088900
       272.54900        9.6748800        10.102900
       276.95700        10.021000        10.067800
       281.43700        10.339100        9.9712800
       285.98900        10.615400        9.8373500
       290.61500        10.860300        9.6998000
       295.31500        11.081000        9.5641500
       300.09200        11.286200        9.4305200
       304.94500        11.478900        9.2987400
       309.87800        11.661000        9.1687100
       314.89000        11.833800        9.0404300
       319.98300        11.998500        8.9140100
       325.15800        12.156300        8.7895000
       330.41800        12.307800        8.6666000
       335.76200        12.453500        8.5454100
       341.19200        12.594200        8.4259600
       346.71100        12.730300        8.3081200
       352.31900        12.862400        8.1919200
       358.01700        12.991000        8.0773800
       363.80800        13.116700        7.9644500
       369.69200        13.240100        7.8530800
       375.67200        13.362200        7.7432900
       381.74800        13.484800        7.6350600
       387.92200        13.612000        7.5247600
       394.19700        13.740500        7.4082000
       400.57300        13.864500        7.2768900
       407.05200        13.973700        7.1415000
       413.63500        14.073700        7.0088600
       420.32600        14.167200        6.8786000
       427.12400        14.255700        6.7507600
       434.03200        14.340100        6.6252700
       441.05200        14.421200        6.5020700
       448.18600        14.503200        6.3799900
       455.43500        14.581100        6.2545300
       462.80200        14.653500        6.1276100
       470.28700        14.719700        6.0012100
       477.89400        14.780000        5.8773300
       485.62300        14.836300        5.7560100
       493.47800        14.889000        5.6371900
       501.45900        14.938400        5.5207800
       509.57000        14.985000        5.4068600
       517.81200        15.029000        5.2954000
       526.18700        15.071000        5.1864700
       534.69800        15.111400        5.0800700
       543.34600        15.151000        4.9760200
       552.13400        15.192100        4.8742300
       561.06500        15.233000        4.7664900
       570.13900        15.267000        4.6576200
       579.36100        15.295900        4.5528000
       588.73200        15.322300        4.4509300
       598.25400        15.347100        4.3517000
       607.93000        15.370600        4.2547300
       617.76300        15.393300        4.1599100
       627.75500        15.416700        4.0668900
       637.90800        15.440300        3.9720800
       648.22600        15.461700        3.8738800
       658.71100        15.475500        3.7745000
       669.36500        15.481900        3.6776600
       680.19100        15.482400        3.5918400
       691.19300        15.486500        3.5144100
       702.37200        15.499900        3.4395100
       713.73300        15.516300        3.3569800
       725.27700        15.526200        3.2702000
       737.00800        15.531500        3.1856100
       748.92800        15.534100        3.1032300
       761.04200        15.534500        3.0230200
       773.35100        15.532900        2.9450000
       785.85900        15.529900        2.8695400
       798.57000        15.526000        2.7964600
       811.48600        15.521400        2.7252400
       824.61100        15.516100        2.6558100
       837.94900        15.510300        2.5881300
       851.50200        15.504100        2.5216100
       865.27400        15.497100        2.4561300
       879.26900        15.488800        2.3917500
       893.49100        15.479500        2.3290500
       907.94300        15.469300        2.2680100
       922.62800        15.458500        2.2086000
       937.55100        15.447000        2.1506000
       952.71500        15.434900        2.0941000
       968.12400        15.422300        2.0390800
       983.78300        15.409300        1.9854700
       999.69500        15.395900        1.9331800
       1015.8600        15.382300        1.8821600
       1032.2900        15.368200        1.8317300
       1048.9900        15.353400        1.7824600
       1065.9600        15.337800        1.7343400
       1083.2000        15.321600        1.6875100
       1100.7200        15.304900        1.6419400
       1118.5200        15.287700        1.5975800
       1136.6100        15.270100        1.5544500
       1155.0000        15.252000        1.5124600
       1173.6800        15.233500        1.4715800
       1192.6600        15.214500        1.4318600
       1211.9500        15.195200        1.3932000
       1231.5500        15.175500        1.3555700
       1251.4700        15.155300        1.3190100
       1271.7200        15.134700        1.2835400
       1292.2900        15.113800        1.2491400
       1313.1900        15.092500        1.2156400
       1334.4300        15.070900        1.1830600
       1356.0100        15.048800        1.1513600
       1377.9400        15.026300        1.1205000
       1400.2300        15.003400        1.0904600
       1422.8800        14.979800        1.0611900
       1445.8900        14.955600        1.0327400
       1469.2800        14.930800        1.0051500
       1493.0400        14.905100       0.97844500
       1517.1900        14.879000       0.95304500
       1541.7300        14.852400       0.92839100
       1566.6700        14.825400       0.90438000
       1592.0100        14.797600       0.88098400
       1617.7600        14.769000       0.85819200
       1643.9200        14.739600       0.83599300
       1670.5100        14.709100       0.81437200
       1697.5300        14.677600       0.79330900
       1724.9900        14.645200       0.77278700
       1752.8900        14.611200       0.75209000
       1781.2400        14.575300       0.73171100
       1810.0500        14.537300       0.71170900
       1839.3200        14.496900       0.69224800
       1869.0700        14.453900       0.67331900
       1899.3000        14.408000       0.65491100
       1930.0200        14.358900       0.63701000
       1961.2400        14.306100       0.61959700
       1992.9600        14.248800       0.60265300
       2025.2000        14.187000       0.58657200
       2057.9500        14.119200       0.57002900
       2091.2400        14.043700       0.55380000
       2125.0600        13.959100       0.53791600
       2159.4300        13.863300       0.52238300
       2194.3600        13.753100       0.50715600
       2229.8500        13.624000       0.49224000
       2265.9200        13.469200       0.47764300
       2302.5700        13.277600       0.46335500
       2339.8100        13.029000       0.44935300
       2377.6600        12.682000       0.43564000
       2416.1100        12.125000       0.42221600
       2455.1900        10.786800       0.40907700
       2471.9000        4.7940800       0.40364700
       2472.1000        4.7953600        4.1096900
       2494.9000        11.268900        4.0562500
       2535.2600        12.538800        3.9645200
       2576.2600        13.181000        3.8738700
       2617.9300        13.618900        3.7845400
       2660.2700        13.952500        3.6966100
       2703.3000        14.221800        3.6099400
       2747.0300        14.447000        3.5244900
       2791.4600        14.639700        3.4404300
       2836.6100        14.807700        3.3579000
       2882.4900        14.955800        3.2766400
       2929.1100        15.087600        3.1969100
       2976.4800        15.206000        3.1185600
       3024.6300        15.312600        3.0415400
       3073.5500        15.409200        2.9661000
       3123.2600        15.497200        2.8920400
       3173.7800        15.577500        2.8194700
       3225.1100        15.650800        2.7481800
       3277.2700        15.718000        2.6784400
       3330.2800        15.779800        2.6101900
       3384.1500        15.836600        2.5432300
       3438.8800        15.888800        2.4776600
       3494.5000        15.936800        2.4135200
       3551.0200        15.981000        2.3507400
       3608.4600        16.021700        2.2893200
       3666.8200        16.059200        2.2292700
       3726.1300        16.093700        2.1705500
       3786.4000        16.125400        2.1131400
       3847.6400        16.154600        2.0570400
       3909.8700        16.181400        2.0022100
       3973.1100        16.206000        1.9486500
       4037.3800        16.228500        1.8963400
       4102.6800        16.249200        1.8452600
       4169.0300        16.268000        1.7953800
       4236.4600        16.285100        1.7467000
       4304.9800        16.300700        1.6991900
       4374.6200        16.314800        1.6528300
       4445.3700        16.327600        1.6076000
       4517.2700        16.339100        1.5634800
       4590.3300        16.349400        1.5204600
       4664.5800        16.358600        1.4784900
