;  Atomic scattering factors for Sb.
;   
;  Concatenation of data from CXRO <http://www-cxro.lbl.gov>
;  and LLNL <http://www-phys.llnl.gov/V_Div/scattering/asf.html>
;  
;  E (eV) f1 f2
;---------------
       10.000000       -9999.0000        9.9509100
       10.161700       -9999.0000        10.068100
       10.326100       -9999.0000        9.9292700
       10.493100       -9999.0000        9.4237700
       10.662800       -9999.0000        8.9268500
       10.835300       -9999.0000        8.3528700
       11.010600       -9999.0000        7.8400400
       11.188600       -9999.0000        7.4678000
       11.369600       -9999.0000        7.1050300
       11.553500       -9999.0000        6.7390700
       11.740400       -9999.0000        6.4057800
       11.930300       -9999.0000        6.1372600
       12.123200       -9999.0000        5.8799800
       12.319300       -9999.0000        5.6668400
       12.518600       -9999.0000        5.4644600
       12.721000       -9999.0000        5.2591100
       12.926800       -9999.0000        5.0227400
       13.135900       -9999.0000        4.8064600
       13.348300       -9999.0000        4.6646900
       13.564200       -9999.0000        4.5158600
       13.783600       -9999.0000        4.3576600
       14.006600       -9999.0000        4.2050000
       14.233100       -9999.0000        4.0605600
       14.463300       -9999.0000        3.9329700
       14.697300       -9999.0000        3.8093900
       14.935000       -9999.0000        3.6239100
       15.176500       -9999.0000        3.4360900
       15.422000       -9999.0000        3.2389700
       15.671400       -9999.0000        3.0676300
       15.924900       -9999.0000        2.9129200
       16.182500       -9999.0000        2.7618000
       16.444200       -9999.0000        2.6152700
       16.710200       -9999.0000        2.4751800
       16.980500       -9999.0000        2.3390600
       17.255100       -9999.0000        2.2104300
       17.534200       -9999.0000        2.0982200
       17.817800       -9999.0000        1.9922100
       18.106000       -9999.0000        1.8882500
       18.398900       -9999.0000        1.7891700
       18.696400       -9999.0000        1.6952900
       18.998800       -9999.0000        1.6119400
       19.306100       -9999.0000        1.5359400
       19.618400       -9999.0000        1.4700000
       19.935700       -9999.0000        1.3915900
       20.258200       -9999.0000        1.3153600
       20.585800       -9999.0000        1.2450800
       20.918800       -9999.0000        1.1985200
       21.257100       -9999.0000        1.1537000
       21.600900       -9999.0000        1.1105600
       21.950300       -9999.0000        1.0611400
       22.305300       -9999.0000       0.99241100
       22.666100       -9999.0000       0.93279500
       23.032700       -9999.0000       0.90111400
       23.405300       -9999.0000       0.87050700
       23.783800       -9999.0000       0.82681200
       24.168500       -9999.0000       0.77122500
       24.559400       -9999.0000       0.74688100
       24.956600       -9999.0000       0.72272600
       25.360300       -9999.0000       0.68052100
       25.770500       -9999.0000       0.65155000
       26.187300       -9999.0000       0.63289400
       26.610900       -9999.0000       0.61477300
       27.041300       -9999.0000       0.59299500
       27.478600       -9999.0000       0.57047500
       27.923100       -9999.0000       0.55097200
       28.374700       -9999.0000       0.53673900
       28.833700       -9999.0000       0.53637800
       29.300000        3.1123200       0.53601800
       29.773900        2.9146700       0.53993600
       30.255500        2.6931800       0.55031000
       30.744900        2.4479400       0.56889100
       31.242100        2.1534500       0.60955300
       31.747500        1.8157500       0.68158800
       32.260900        1.3575600       0.81075200
       32.782700       0.73596600        1.0097800
       33.313000       0.77018300        2.1665600
       33.851800        1.2724400        2.6221500
       34.399300        1.5599400        2.6862600
       34.955700        1.8187300        2.6459100
       35.521100        1.7889500        2.4260200
       36.095600        1.7129400        2.3250700
       36.679400        1.5864700        2.2285700
       37.272700        1.3955200        2.1427200
       37.875500        1.1467600        2.0733200
       38.488200       0.81613900        2.0569200
       39.110700       0.44683000        2.0750500
       39.743200      0.040824400        2.2267300
       40.386100      -0.35490500        2.4228800
       41.039300      -0.72159200        2.6985100
       41.703100       -1.0542500        2.9950000
       42.377600       -1.3974800        3.3131100
       43.063000       -1.7356200        3.7208300
       43.759500       -2.0006200        4.1551700
       44.467300       -2.2644400        4.6025800
       45.186500       -2.5069900        5.1102400
       45.917400       -2.6670200        5.7369300
       46.660000       -2.6355600        6.1654700
       47.414700       -2.7607600        6.6360100
       48.181600       -2.8535000        7.1424400
       48.960900       -2.8714100        7.6875300
       49.752800       -2.8432400        8.1214200
       50.557600       -2.8775500        8.5424900
       51.375300       -2.9493700        8.9853900
       52.206200       -3.0838500        9.4994900
       53.050600       -3.1411500        10.115400
       53.908700       -3.1033300        10.771300
       54.780600       -2.9990100        11.344500
       55.666700       -2.9246800        11.911200
       56.567000       -2.8438000        12.506200
       57.482000       -2.7314400        13.123400
       58.411700       -2.6098000        13.738900
       59.356400       -2.4818400        14.383400
       60.316500       -2.3544900        15.083800
       61.292100       -2.1461100        15.866700
       62.283400       -1.8191100        16.690200
       63.290800       -1.3719700        17.410400
       64.314500      -0.94426900        18.103800
       65.354700      -0.49178200        18.824800
       66.411800      0.045228500        19.574600
       67.485900       0.77979000        20.275200
       68.577500        1.4583400        20.775400
       69.686700        2.0836500        21.287900
       70.813800        2.7154500        21.813000
       71.959100        3.3755000        22.351100
       73.123000        4.0968600        22.883400
       74.305700        4.8323700        23.375300
       75.507600        5.5922900        23.873500
       76.728900        6.3911300        24.380300
       77.969900        7.2491200        24.897800
       79.231000        8.1935100        25.426400
       80.512500        9.2970900        25.943500
       81.814700        10.449600        26.271000
       83.138000        11.647100        26.602600
       84.482700        13.039600        26.872200
       85.849100        14.512900        26.907700
       87.237700        15.881800        26.706900
       88.648700        17.245700        26.503600
       90.082500        18.944100        26.142800
       91.539500        20.189300        25.033700
       93.020100        20.564700        24.395900
       94.524600        21.691900        24.149100
       96.053500        22.739900        23.445400
       97.607100        23.656100        22.762100
       99.185800        24.529000        22.098700
       100.79000        25.413600        21.452400
       102.42000        26.379000        20.823800
       104.07700        27.686300        20.169500
       105.76000        28.774800        18.609500
       107.47100        29.545500        17.094700
       109.20900        29.916900        15.520500
       110.97500        30.061200        14.091400
       112.77000        30.074800        12.793900
       114.59400        30.035000        11.615700
       116.44800        29.970600        10.457500
       118.33100        29.961900        9.3048700
       120.24500        29.650200        7.9211600
       122.19000        29.114800        6.7431400
       124.16600        28.462900        5.7412400
       126.17500        27.758900        4.8973600
       128.21500        27.030700        4.1875100
       130.28900        26.293300        3.5868300
       132.39700        25.529100        3.0744900
       134.53800        24.756900        2.7180700
       136.71400        23.971100        2.4928100
       138.92500        23.330000        2.4046300
       141.17200        22.789600        2.3195700
       143.45600        22.289200        2.2375100
       145.77600        21.804400        2.1583700
       148.13400        21.309900        2.1089300
       150.53000        20.802400        2.1123900
       152.96400        20.354900        2.1988800
       155.43900        19.956800        2.3106900
       157.95300        19.611700        2.4449200
       160.50700        19.310400        2.5869700
       163.10300        19.044500        2.7372700
       165.74200        18.813100        2.8963000
       168.42200        18.621400        3.0645700
       171.14600        18.493000        3.2182500
       173.91500        18.382400        3.3444300
       176.72700        18.272000        3.4304700
       179.58600        18.158300        3.5172700
       182.49100        18.045100        3.6067900
       185.44200        17.941000        3.7013800
       188.44200        17.848900        3.7990100
       191.48900        17.778300        3.8959400
       194.58700        17.713200        3.9742200
       197.73400        17.652500        4.0474000
       200.93200        17.590000        4.1163400
       204.18200        17.529800        4.1864300
       207.48500        17.474600        4.2577200
       210.84000        17.429800        4.3302200
       214.25100        17.388700        4.3873100
       217.71600        17.346900        4.4415400
       221.23700        17.301500        4.4935700
       224.81600        17.255400        4.5461500
       228.45200        17.209400        4.5993700
       232.14700        17.164000        4.6532600
       235.90200        17.119400        4.7077400
       239.71700        17.075900        4.7628500
       243.59500        17.033400        4.8185900
       247.53500        16.992100        4.8750200
       251.53800        16.952300        4.9320900
       255.60700        16.914000        4.9898100
       259.74100        16.877600        5.0482500
       263.94200        16.843800        5.1073800
       268.21100        16.813700        5.1671900
       272.54900        16.790600        5.2276800
       276.95700        16.783800        5.2751700
       281.43700        16.769100        5.3056800
       285.98900        16.742100        5.3252400
       290.61500        16.705000        5.3432900
       295.31500        16.659200        5.3614000
       300.09200        16.606700        5.3796000
       304.94500        16.548000        5.3978400
       309.87800        16.482900        5.4161000
       314.89000        16.411400        5.4344900
       319.98300        16.333300        5.4529300
       325.15800        16.248300        5.4714200
       330.41800        16.156000        5.4899500
       335.76200        16.055800        5.5085500
       341.19200        15.947400        5.5272600
       346.71100        15.830000        5.5459900
       352.31900        15.703000        5.5647700
       358.01700        15.565500        5.5836300
       363.80800        15.416800        5.6026000
       369.69200        15.256100        5.6216200
       375.67200        15.082600        5.6406800
       381.74800        14.896200        5.6598300
       387.92200        14.698300        5.6765200
       394.19700        14.490400        5.6876400
       400.57300        14.259200        5.6722400
       407.05200        13.983200        5.6463800
       413.63500        13.665200        5.6206300
       420.32600        13.304000        5.5949900
       427.12400        12.894900        5.5694700
       434.03200        12.431400        5.5441700
       441.05200        11.904300        5.5189000
       448.18600        11.303700        5.4931100
       455.43500        10.610400        5.4644000
       462.80200        9.8015400        5.4337200
       470.28700        8.8452500        5.4020700
       477.89400        7.6960000        5.3705500
       485.62300        6.2840200        5.3392200
       493.47800        4.4925800        5.3081000
       501.45900        2.1070100        5.2771800
       509.57000       -1.3355300        5.2464400
       517.81200       -7.1716700        5.2158700
       526.18700       -24.646800        5.1854800
       528.10000       -58.046700        5.1786300
       528.30000       -57.991100        40.466300
       534.69800       -10.227200        39.785700
       543.34600     0.0099320400        38.896200
       552.13400        5.6848600        38.025900
       561.06500        9.6543800        37.175000
       570.13900        12.681100        36.348700
       579.36100        15.137200        35.578800
       588.73200        17.205800        34.834600
       598.25400        18.986000        34.112100
       607.93000        20.543500        33.405100
       617.76300        21.919500        32.712200
       627.75500        23.158300        32.031300
       637.90800        24.268100        31.340800
       648.22600        25.254600        30.630300
       658.71100        26.101600        29.913400
       669.36500        26.784500        29.214300
       680.19100        27.346900        28.610200
       691.19300        27.863100        28.080000
       702.37200        28.342300        27.586300
       713.73300        28.776400        27.108600
       725.27700        29.155300        26.644300
       737.00800        29.467900        26.188100
       748.92800        29.696600        25.739600
       761.04200        29.741200        25.310500
       773.35100        29.611100        25.012500
       785.85900        29.309500        25.155400
       798.57000        29.297400        25.670100
       811.48600        29.629700        26.194700
       824.61100        30.144100        26.730400
       837.94900        31.002700        27.277200
       851.50200        32.051400        27.518100
       865.27400        33.221900        27.407800
       879.26900        34.173600        26.985800
       893.49100        34.870600        26.571500
       907.94300        35.473400        26.164000
       922.62800        35.924700        25.763000
       937.55100        36.346900        25.522900
       952.71500        36.799500        25.324500
       968.12400        37.292100        25.162000
       983.78300        37.846300        25.000600
       999.69500        38.440600        24.811100
       1015.8600        39.172200        24.591900
       1032.2900        39.840900        24.103400
       1048.9900        40.366600        23.618100
       1065.9600        40.828500        23.137900
       1083.2000        41.242100        22.667300
       1100.7200        41.619100        22.206300
       1118.5200        41.965300        21.754600
       1136.6100        42.285200        21.312200
       1155.0000        42.582000        20.878700
       1173.6800        42.858200        20.454100
       1192.6600        43.115700        20.038100
       1211.9500        43.356300        19.630600
       1231.5500        43.581100        19.231400
       1251.4700        43.791500        18.840800
       1271.7200        43.988800        18.458700
       1292.2900        44.174300        18.084800
       1313.1900        44.349200        17.718800
       1334.4300        44.514100        17.360000
       1356.0100        44.669300        17.008400
       1377.9400        44.815700        16.664000
       1400.2300        44.954200        16.326600
       1422.8800        45.085200        15.995900
       1445.8900        45.210300        15.672200
       1469.2800        45.330100        15.353400
       1493.0400        45.447200        15.038600
       1517.1900        45.555500        14.721000
       1541.7300        45.651800        14.408900
       1566.6700        45.739700        14.103500
       1592.0100        45.820300        13.804300
       1617.7600        45.894100        13.511500
       1643.9200        45.962100        13.225100
       1670.5100        46.024800        12.944700
       1697.5300        46.082900        12.670200
       1724.9900        46.138100        12.401600
       1752.8900        46.188900        12.133700
       1781.2400        46.233500        11.869800
       1810.0500        46.271200        11.610300
       1839.3200        46.303200        11.356800
       1869.0700        46.330400        11.108700
       1899.3000        46.353200        10.865900
       1930.0200        46.371600        10.628400
       1961.2400        46.386400        10.396200
       1992.9600        46.396000        10.169200
       2025.2000        46.406000        9.9514500
       2057.9500        46.414600        9.7307400
       2091.2400        46.417700        9.5137500
       2125.0600        46.416100        9.3011400
       2159.4300        46.410600        9.0924900
       2194.3600        46.401800        8.8883000
       2229.8500        46.389200        8.6872300
       2265.9200        46.373000        8.4905400
       2302.5700        46.353000        8.2971400
       2339.8100        46.329700        8.1081000
       2377.6600        46.303000        7.9220500
       2416.1100        46.272400        7.7397300
       2455.1900        46.238500        7.5608700
       2494.9000        46.200500        7.3850600
       2535.2600        46.158700        7.2129700
       2576.2600        46.113100        7.0440700
       2617.9300        46.063500        6.8784300
       2660.2700        46.009800        6.7159300
       2703.3000        45.951800        6.5564700
       2747.0300        45.889200        6.4000200
       2791.4600        45.821800        6.2465700
       2836.6100        45.749500        6.0961200
       2882.4900        45.671800        5.9484100
       2929.1100        45.588200        5.8035400
       2976.4800        45.498600        5.6614600
       3024.6300        45.402100        5.5220500
       3073.5500        45.298500        5.3853400
       3123.2600        45.186700        5.2511300
       3173.7800        45.066100        5.1194900
       3225.1100        44.935500        4.9903900
       3277.2700        44.793800        4.8636800
       3330.2800        44.639500        4.7393300
       3384.1500        44.470500        4.6173700
       3438.8800        44.284600        4.4977400
       3494.5000        44.079000        4.3804000
       3551.0200        43.849600        4.2651400
       3608.4600        43.591200        4.1521100
       3666.8200        43.297100        4.0412400
       3726.1300        42.957000        3.9324500
       3786.4000        42.556200        3.8256700
       3847.6400        42.070900        3.7209100
       3909.8700        41.459600        3.6181100
       3973.1100        40.639200        3.5172600
       4037.3800        39.393900        3.4182500
       4102.6800        36.736200        3.3214000
       4132.1000        23.902400        3.2791500
       4132.3000        23.903900        10.343100
       4169.0300        37.085500        10.203400
       4236.4600        39.116900        9.9549000
       4304.9800        39.609600        9.7124500
       4374.6200        37.544600        9.4760700
       4380.3000        33.006800        9.4571900
       4380.5000        33.011000        13.023600
       4445.3700        40.918300        12.718000
       4517.2700        42.168300        12.392600
