;  Atomic scattering factors for Se.
;   
;  Concatenation of data from CXRO <http://www-cxro.lbl.gov>
;  and LLNL <http://www-phys.llnl.gov/V_Div/scattering/asf.html>
;  
;  E (eV) f1 f2
;---------------
       10.000000       -9999.0000        5.2024100
       10.161700       -9999.0000        5.3600500
       10.326100       -9999.0000        5.5224700
       10.493100       -9999.0000        5.6301700
       10.662800       -9999.0000        5.6622100
       10.835300       -9999.0000        5.6944300
       11.010600       -9999.0000        5.7176200
       11.188600       -9999.0000        5.7270900
       11.369600       -9999.0000        5.7365900
       11.553500       -9999.0000        5.7461000
       11.740400       -9999.0000        5.7555800
       11.930300       -9999.0000        5.7436700
       12.123200       -9999.0000        5.7317900
       12.319300       -9999.0000        5.7199300
       12.518600       -9999.0000        5.7080900
       12.721000       -9999.0000        5.6911600
       12.926800       -9999.0000        5.6679800
       13.135900       -9999.0000        5.6448900
       13.348300       -9999.0000        5.6219000
       13.564200       -9999.0000        5.5989900
       13.783600       -9999.0000        5.5761900
       14.006600       -9999.0000        5.5534700
       14.233100       -9999.0000        5.5308500
       14.463300       -9999.0000        5.5083200
       14.697300       -9999.0000        5.4858800
       14.935000       -9999.0000        5.4641600
       15.176500       -9999.0000        5.4717900
       15.422000       -9999.0000        5.4794500
       15.671400       -9999.0000        5.4871000
       15.924900       -9999.0000        5.4947700
       16.182500       -9999.0000        5.5024500
       16.444200       -9999.0000        5.5101400
       16.710200       -9999.0000        5.4851900
       16.980500       -9999.0000        5.4583000
       17.255100       -9999.0000        5.4315400
       17.534200       -9999.0000        5.4049100
       17.817800       -9999.0000        5.3784000
       18.106000       -9999.0000        5.3599700
       18.398900       -9999.0000        5.3438000
       18.696400       -9999.0000        5.3276800
       18.998800       -9999.0000        5.3116100
       19.306100       -9999.0000        5.2955800
       19.618400       -9999.0000        5.2767400
       19.935700       -9999.0000        5.2293100
       20.258200       -9999.0000        5.1823000
       20.585800       -9999.0000        5.1357200
       20.918800       -9999.0000        5.0895500
       21.257100       -9999.0000        5.0438000
       21.600900       -9999.0000        4.9797600
       21.950300       -9999.0000        4.8565800
       22.305300       -9999.0000        4.7364500
       22.666100       -9999.0000        4.6193000
       23.032700       -9999.0000        4.5012000
       23.405300       -9999.0000        4.2824800
       23.783800       -9999.0000        4.0743900
       24.168500       -9999.0000        3.8764200
       24.559400       -9999.0000        3.6880600
       24.956600       -9999.0000        3.5088600
       25.360300       -9999.0000        3.3383600
       25.770500       -9999.0000        3.1761500
       26.187300       -9999.0000        3.0218200
       26.610900       -9999.0000        2.8749900
       27.041300       -9999.0000        2.7353000
       27.478600       -9999.0000        2.6023900
       27.923100       -9999.0000        2.4759400
       28.374700       -9999.0000        2.3556300
       28.833700       -9999.0000        2.2411700
       29.300000        7.8121000        2.1322700
       29.773900        7.7726400        2.0286700
       30.255500        7.7307800        1.9300900
       30.744900        7.6873100        1.8363100
       31.242100        7.6432900        1.7450300
       31.747500        7.5947600        1.6566600
       32.260900        7.5432600        1.5727600
       32.782700        7.4895400        1.4931100
       33.313000        7.4338900        1.4175000
       33.851800        7.3764900        1.3457100
       34.399300        7.3175200        1.2775600
       34.955700        7.2570900        1.2128700
       35.521100        7.1953200        1.1514400
       36.095600        7.1324800        1.0931300
       36.679400        7.0686700        1.0367900
       37.272700        7.0024800       0.98284900
       37.875500        6.9343300       0.93171400
       38.488200        6.8643800       0.88323800
       39.110700        6.7925600       0.83728600
       39.743200        6.7187100       0.79372300
       40.386100        6.6425800       0.75242700
       41.039300        6.5631500       0.71328000
       41.703100        6.4781000       0.67828000
       42.377600        6.3943100       0.65125400
       43.063000        6.3114100       0.62530300
       43.759500        6.2270500       0.60038700
       44.467300        6.1397700       0.57663000
       45.186500        6.0501700       0.55606600
       45.917400        5.9577800       0.53623500
       46.660000        5.8592500       0.51711100
       47.414700        5.7526300       0.50798300
       48.181600        5.6500600       0.50422700
       48.960900        5.5468700       0.50049900
       49.752800        5.4391500       0.49679800
       50.557600        5.3258900       0.49634400
       51.375300        5.2072600       0.49650000
       52.206200        5.0794700       0.49665800
       53.050600        4.9377100       0.49938300
       53.908700        4.7780100       0.50374900
       54.780600        4.5891400       0.51642400
       55.666700        4.3373800       0.53143500
       56.567000        3.9658900       0.71186000
       57.482000        3.7683100        1.1478300
       58.411700        3.9112000        1.4796000
       59.356400        4.0225500        1.6091800
       60.316500        4.1162000        1.6492200
       61.292100        4.1677900        1.6590700
       62.283400        4.1008600        1.5587000
       63.290800        3.9854000        1.5841200
       64.314500        3.8532900        1.6099600
       65.354700        3.7194100        1.7021100
       66.411800        3.6030500        1.8006400
       67.485900        3.4949300        1.9070000
       68.577500        3.3916200        2.0205100
       69.686700        3.2920600        2.1407900
       70.813800        3.1965600        2.2682300
       71.959100        3.1079500        2.4032500
       73.123000        3.0278600        2.5343400
       74.305700        2.9413300        2.6648500
       75.507600        2.8520900        2.8020800
       76.728900        2.7616600        2.9463800
       77.969900        2.6706800        3.0981000
       79.231000        2.5792900        3.2576400
       80.512500        2.4872400        3.4254000
       81.814700        2.3919900        3.6017900
       83.138000        2.2948200        3.7986900
       84.482700        2.2083500        4.0121100
       85.849100        2.1313000        4.2375100
       87.237700        2.0644200        4.4755900
       88.648700        2.0115600        4.7270400
       90.082500        1.9834000        4.9926100
       91.539500        1.9828100        5.2368800
       93.020100        1.9694200        5.4715000
       94.524600        1.9548300        5.7166100
       96.053500        1.9450800        5.9727100
       97.607100        1.9441000        6.2402900
       99.185800        1.9555900        6.5198400
       100.79000        1.9864700        6.8119300
       102.42000        2.0568700        7.1171000
       104.07700        2.1589600        7.3702900
       105.76000        2.2350200        7.6047200
       107.47100        2.3029800        7.8466000
       109.20900        2.3711400        8.0961800
       110.97500        2.4437400        8.3536900
       112.77000        2.5239100        8.6194000
       114.59400        2.6155700        8.8935500
       116.44800        2.7250000        9.1764400
       118.33100        2.8734100        9.4571200
       120.24500        3.0160200        9.6921000
       122.19000        3.1492400        9.9329100
       124.16600        3.2813000        10.179700
       126.17500        3.4181700        10.432700
       128.21500        3.5627900        10.691900
       130.28900        3.7185400        10.957500
       132.39700        3.8900500        11.229800
       134.53800        4.0906900        11.508800
       136.71400        4.3248900        11.746400
       138.92500        4.5396600        11.962200
       141.17200        4.7438000        12.181900
       143.45600        4.9507600        12.405600
       145.77600        5.1641900        12.633500
       148.13400        5.3890800        12.865600
       150.53000        5.6436600        13.101300
       152.96400        5.8998600        13.292900
       155.43900        6.1455600        13.487400
       157.95300        6.3919100        13.684700
       160.50700        6.6432900        13.884900
       163.10300        6.9032000        14.088000
       165.74200        7.1758500        14.294100
       168.42200        7.4722100        14.503200
       171.14600        7.7991300        14.676200
       173.91500        8.1088400        14.825000
       176.72700        8.4080200        14.975300
       179.58600        8.7097500        15.127100
       182.49100        9.0175700        15.280500
       185.44200        9.3352500        15.435500
       188.44200        9.6673900        15.592000
       191.48900        10.022500        15.750100
       194.58700        10.458300        15.879200
       197.73400        10.855800        15.918500
       200.93200        11.214500        15.957900
       204.18200        11.564600        15.997300
       207.48500        11.914300        16.036900
       210.84000        12.280200        16.075100
       214.25100        12.640200        16.066100
       217.71600        12.984600        16.049100
       221.23700        13.309700        16.025600
       224.81600        13.624000        16.002000
       228.45200        13.930800        15.978500
       232.14700        14.232300        15.955100
       235.90200        14.529900        15.931500
       239.71700        14.824800        15.908100
       243.59500        15.118400        15.884900
       247.53500        15.411800        15.861500
       251.53800        15.706100        15.838100
       255.60700        16.002500        15.814600
       259.74100        16.303000        15.791400
       263.94200        16.610200        15.768200
       268.21100        16.928600        15.745300
       272.54900        17.269100        15.722200
       276.95700        17.661600        15.654800
       281.43700        18.027900        15.532200
       285.98900        18.355800        15.375900
       290.61500        18.654700        15.216200
       295.31500        18.931100        15.058000
       300.09200        19.192800        14.901500
       304.94500        19.442300        14.746500
       309.87800        19.681600        14.593200
       314.89000        19.912000        14.441600
       319.98300        20.134600        14.291700
       325.15800        20.350500        14.143300
       330.41800        20.560200        13.996300
       335.76200        20.764100        13.850800
       341.19200        20.963400        13.707300
       346.71100        21.158500        13.564700
       352.31900        21.349400        13.423500
       358.01700        21.537000        13.284100
       363.80800        21.722300        13.146300
       369.69200        21.906000        13.009800
       375.67200        22.089200        12.874600
       381.74800        22.273800        12.740700
       387.92200        22.464200        12.604900
       394.19700        22.664200        12.463700
       400.57300        22.861800        12.293200
       407.05200        23.036400        12.112800
       413.63500        23.196200        11.934700
       420.32600        23.346200        11.759900
       427.12400        23.489100        11.587800
       434.03200        23.625500        11.417500
       441.05200        23.756700        11.250100
       448.18600        23.887400        11.084200
       455.43500        24.012300        10.915000
       462.80200        24.130700        10.744800
       470.28700        24.241500        10.575400
       477.89400        24.345800        10.408900
       485.62300        24.445200        10.244800
       493.47800        24.540100        10.083200
       501.45900        24.631000        9.9242100
       509.57000        24.718700        9.7680000
       517.81200        24.805100        9.6137300
       526.18700        24.889300        9.4596700
       534.69800        24.970400        9.3042800
       543.34600        25.046500        9.1495900
       552.13400        25.120900        8.9975700
       561.06500        25.192800        8.8399600
       570.13900        25.255800        8.6815400
       579.36100        25.311700        8.5274100
       588.73200        25.363200        8.3767000
       598.25400        25.411600        8.2290800
       607.93000        25.457200        8.0840400
       617.76300        25.500900        7.9415300
       627.75500        25.545300        7.8009600
       637.90800        25.589400        7.6560000
       648.22600        25.628700        7.5035000
       658.71100        25.653400        7.3474200
       669.36500        25.662800        7.1946000
       680.19100        25.659600        7.0611300
       691.19300        25.660800        6.9424800
       702.37200        25.675700        6.8288100
       713.73300        25.694500        6.7056000
       725.27700        25.704800        6.5768600
       737.00800        25.708900        6.4505000
       748.92800        25.708700        6.3266200
       761.04200        25.705300        6.2050700
       773.35100        25.699400        6.0851500
       785.85900        25.690600        5.9648800
       798.57000        25.675900        5.8448000
       811.48600        25.656100        5.7270800
       824.61100        25.631900        5.6117800
       837.94900        25.603700        5.4988700
       851.50200        25.571500        5.3876100
       865.27400        25.535000        5.2780100
       879.26900        25.493600        5.1701300
       893.49100        25.447500        5.0644200
       907.94300        25.396900        4.9609300
       922.62800        25.342800        4.8596100
       937.55100        25.283200        4.7568100
       952.71500        25.216900        4.6552600
       968.12400        25.143000        4.5550700
       983.78300        25.061700        4.4570600
       999.69500        24.972900        4.3611800
       1015.8600        24.876200        4.2674000
       1032.2900        24.771400        4.1756400
       1048.9900        24.657800        4.0850700
       1065.9600        24.533400        3.9956300
       1083.2000        24.397200        3.9079800
       1100.7200        24.248200        3.8222500
       1118.5200        24.084800        3.7384000
       1136.6100        23.905300        3.6564500
       1155.0000        23.707500        3.5763200
       1173.6800        23.488500        3.4979800
       1192.6600        23.244600        3.4212400
       1211.9500        22.971000        3.3462400
       1231.5500        22.661700        3.2729800
       1251.4700        22.308300        3.2013500
       1271.7200        21.899500        3.1314900
       1292.2900        21.418900        3.0633900
       1313.1900        20.841300        2.9966900
       1334.4300        20.125900        2.9314100
       1356.0100        19.200200        2.8675100
       1377.9400        17.915900        2.8051800
       1400.2300        15.883800        2.7441300
       1422.8800        11.242500        2.6842500
       1433.8000       -9.1606700        2.6561600
       1434.0000       -9.1537900        16.405500
       1445.8900        11.985900        16.234200
       1469.2800        16.935000        15.906700
       1493.0400        19.318900        15.585700
       1517.1900        20.899700        15.274000
       1541.7300        22.066200        14.968900
       1566.6700        22.961700        14.669900
       1592.0100        23.640700        14.376800
       1617.7600        24.083000        14.089700
       1643.9200        23.920000        13.808200
       1651.9000        21.500300        13.724400
       1652.1000        21.505900        15.600100
       1670.5100        25.065400        15.374400
       1697.5300        26.165000        15.053400
       1724.9900        26.956900        14.739100
       1752.8900        27.612100        14.418500
       1781.2400        28.175800        14.100400
       1810.0500        28.672200        13.786200
       1839.3200        29.115400        13.479000
       1869.0700        29.516300        13.178700
       1899.3000        29.881700        12.884900
       1930.0200        30.217000        12.598000
       1961.2400        30.526300        12.317400
       1992.9600        30.810200        12.042900
       2025.2000        31.085500        11.782400
       2057.9500        31.344000        11.509600
       2091.2400        31.578500        11.241200
       2125.0600        31.795400        10.977200
       2159.4300        31.996300        10.717900
       2194.3600        32.182700        10.463200
       2229.8500        32.355700        10.213200
       2265.9200        32.516500        9.9677400
       2302.5700        32.665500        9.7267600
       2339.8100        32.804000        9.4908200
       2377.6600        32.932500        9.2590200
       2416.1100        33.051500        9.0319900
       2455.1900        33.161600        8.8094900
       2494.9000        33.263900        8.5918500
       2535.2600        33.358200        8.3781800
       2576.2600        33.445300        8.1693200
       2617.9300        33.525700        7.9648400
       2660.2700        33.599700        7.7645100
       2703.3000        33.667700        7.5686900
       2747.0300        33.729900        7.3769500
       2791.4600        33.786700        7.1895300
       2836.6100        33.838500        7.0065000
       2882.4900        33.885800        6.8274100
       2929.1100        33.928600        6.6522200
       2976.4800        33.966900        6.4809200
       3024.6300        34.001200        6.3137800
       3073.5500        34.031900        6.1506900
       3123.2600        34.059300        5.9912600
       3173.7800        34.083100        5.8353200
       3225.1100        34.103800        5.6832500
       3277.2700        34.121600        5.5347900
       3330.2800        34.136600        5.3897900
       3384.1500        34.149000        5.2483300
       3438.8800        34.158900        5.1103200
       3494.5000        34.166500        4.9755800
       3551.0200        34.171900        4.8441800
       3608.4600        34.175200        4.7159800
       3666.8200        34.176600        4.5909600
       3726.1300        34.176200        4.4689800
       3786.4000        34.174100        4.3500500
       3847.6400        34.170300        4.2341300
       3909.8700        34.165100        4.1210600
       3973.1100        34.158500        4.0108600
       4037.3800        34.150500        3.9033900
       4102.6800        34.141200        3.7987100
       4169.0300        34.130800        3.6966400
       4236.4600        34.119400        3.5972100
       4304.9800        34.106800        3.5002900
       4374.6200        34.093300        3.4058900
       4445.3700        34.079000        3.3139000
       4517.2700        34.063700        3.2242600
       4590.3300        34.047700        3.1369900
       4664.5800        34.031000        3.0519500
