;  Atomic scattering factors for Sm.
;   
;  Concatenation of data from CXRO <http://www-cxro.lbl.gov>
;  and LLNL <http://www-phys.llnl.gov/V_Div/scattering/asf.html>
;  
;  E (eV) f1 f2
;---------------
       10.000000       -9999.0000       0.18764300
       10.161700       -9999.0000       0.19533600
       10.326100       -9999.0000       0.20334500
       10.493100       -9999.0000       0.21168100
       10.662800       -9999.0000       0.22036000
       10.835300       -9999.0000       0.22939400
       11.010600       -9999.0000       0.23879900
       11.188600       -9999.0000       0.24858900
       11.369600       -9999.0000       0.25878100
       11.553500       -9999.0000       0.26939100
       11.740400       -9999.0000       0.28043500
       11.930300       -9999.0000       0.29193300
       12.123200       -9999.0000       0.30390200
       12.319300       -9999.0000       0.31512200
       12.518600       -9999.0000       0.32609100
       12.721000       -9999.0000       0.33744200
       12.926800       -9999.0000       0.34918700
       13.135900       -9999.0000       0.36134200
       13.348300       -9999.0000       0.37391900
       13.564200       -9999.0000       0.38693400
       13.783600       -9999.0000       0.39980600
       14.006600       -9999.0000       0.41159100
       14.233100       -9999.0000       0.42372300
       14.463300       -9999.0000       0.43621300
       14.697300       -9999.0000       0.44907100
       14.935000       -9999.0000       0.46230800
       15.176500       -9999.0000       0.47593600
       15.422000       -9999.0000       0.48890200
       15.671400       -9999.0000       0.50111200
       15.924900       -9999.0000       0.51362600
       16.182500       -9999.0000       0.52645300
       16.444200       -9999.0000       0.53960000
       16.710200       -9999.0000       0.55307500
       16.980500       -9999.0000       0.56684100
       17.255100       -9999.0000       0.57976000
       17.534200       -9999.0000       0.59297200
       17.817800       -9999.0000       0.60648600
       18.106000       -9999.0000       0.62030800
       18.398900       -9999.0000       0.63444500
       18.696400       -9999.0000       0.65306300
       18.998800       -9999.0000       0.67614300
       19.306100       -9999.0000       0.70003900
       19.618400       -9999.0000       0.72478000
       19.935700       -9999.0000       0.78405600
       20.258200       -9999.0000       0.88333200
       20.585800       -9999.0000        1.0909300
       20.918800       -9999.0000        1.4685300
       21.257100       -9999.0000        1.6701000
       21.600900       -9999.0000        1.6947100
       21.950300       -9999.0000        1.7196700
       22.305300       -9999.0000        1.8624200
       22.666100       -9999.0000        2.3673200
       23.032700       -9999.0000        2.7852700
       23.405300       -9999.0000        2.9328000
       23.783800       -9999.0000        2.7604600
       24.168500       -9999.0000        3.2528000
       24.559400       -9999.0000        6.0972000
       24.956600       -9999.0000        6.8593100
       25.360300       -9999.0000        8.3955700
       25.770500       -9999.0000        9.5292000
       26.187300       -9999.0000        10.440900
       26.610900       -9999.0000        11.080200
       27.041300       -9999.0000        11.415000
       27.478600       -9999.0000        11.626100
       27.923100       -9999.0000        11.841000
       28.374700       -9999.0000        12.060000
       28.833700       -9999.0000        12.125100
       29.300000        3.6798900        12.173200
       29.773900        4.4848100        12.221500
       30.255500        5.2974700        11.846200
       30.744900        5.7882300        11.418000
       31.242100        6.1302500        11.139200
       31.747500        6.4522600        10.877300
       32.260900        6.7263100        10.623600
       32.782700        6.9740800        10.424500
       33.313000        7.2159500        10.229200
       33.851800        7.4500100        10.037400
       34.399300        7.6694400        9.8150800
       34.955700        7.8331400        9.5873400
       35.521100        7.9581500        9.3944700
       36.095600        8.0651700        9.2113600
       36.679400        8.1278400        9.0571000
       37.272700        8.2130100        8.9538900
       37.875500        8.3145400        8.8518800
       38.488200        8.4255500        8.7510000
       39.110700        8.5346900        8.6226100
       39.743200        8.6210100        8.4923800
       40.386100        8.6886400        8.3641200
       41.039300        8.7385300        8.2451100
       41.703100        8.7794000        8.1321300
       42.377600        8.8039000        8.0207000
       43.063000        8.7997200        7.9107900
       43.759500        8.7534500        7.8561800
       44.467300        8.7467200        7.8399100
       45.186500        8.7502100        7.8236500
       45.917400        8.7468500        7.8241400
       46.660000        8.7663400        7.8395900
       47.414700        8.7987200        7.8550600
       48.181600        8.8379800        7.8705600
       48.960900        8.8824600        7.8861000
       49.752800        8.9310400        7.9016600
       50.557600        8.9829600        7.9172600
       51.375300        9.0376900        7.9328900
       52.206200        9.0948800        7.9485400
       53.050600        9.1542900        7.9642400
       53.908700        9.2157600        7.9799500
       54.780600        9.2792600        7.9957100
       55.666700        9.3448500        8.0114900
       56.567000        9.4127100        8.0273000
       57.482000        9.4831700        8.0431400
       58.411700        9.5568200        8.0590200
       59.356400        9.6346800        8.0749300
       60.316500        9.7186900        8.0908600
       61.292100        9.8134200        8.1068300
       62.283400        9.9358300        8.1225800
       63.290800        10.053800        8.0648600
       64.314500        10.142000        8.0075500
       65.354700        10.212100        7.9506600
       66.411800        10.271200        7.8941600
       67.485900        10.321000        7.8380600
       68.577500        10.362600        7.7823700
       69.686700        10.396500        7.7270700
       70.813800        10.423100        7.6721600
       71.959100        10.442400        7.6176500
       73.123000        10.454500        7.5635200
       74.305700        10.459200        7.5097700
       75.507600        10.456000        7.4564100
       76.728900        10.444200        7.4034300
       77.969900        10.420600        7.3508200
       79.231000        10.390400        7.3112500
       80.512500        10.358300        7.2723100
       81.814700        10.322100        7.2335700
       83.138000        10.280300        7.1950500
       84.482700        10.232700        7.1567200
       85.849100        10.180300        7.1186100
       87.237700        10.128800        7.0806900
       88.648700        10.065800        7.0200900
       90.082500        9.9824700        6.9591400
       91.539500        9.8834200        6.8987100
       93.020100        9.7701500        6.8388000
       94.524600        9.6439500        6.7794200
       96.053500        9.5085400        6.7205500
       97.607100        9.3813600        6.6521900
       99.185800        9.2140000        6.5265700
       100.79000        8.9991000        6.4033200
       102.42000        8.7461600        6.2824000
       104.07700        8.4661900        6.1637600
       105.76000        8.1892300        6.0473600
       107.47100        7.9831500        5.7674900
       109.20900        7.4776900        5.3124200
       110.97500        6.7425400        4.8932600
       112.77000        5.7822400        4.5648000
       114.59400        4.6899600        4.3117300
       116.44800        3.3991100        4.0833100
       118.33100        1.8432300        3.8813800
       120.24500      -0.12676300        3.6894200
       122.19000       -2.6975400        3.6175200
       124.16600       -6.6611000        3.6064900
       126.17500       -11.918100        5.7412900
       128.21500       -17.728800        10.051000
       130.28900       -24.093300        17.713900
       132.39700       -29.482600        40.643700
       134.53800       -14.493200        61.657300
       136.71400        11.359600        48.303300
       138.92500        13.424900        38.567300
       141.17200        13.139900        39.277400
       143.45600        18.522000        38.931400
       145.77600        20.903100        34.805600
       148.13400        21.981300        32.847400
       150.53000        23.175600        31.134400
       152.96400        24.221300        29.510800
       155.43900        25.085700        27.971800
       157.95300        25.776700        26.513100
       160.50700        26.305500        25.130500
       163.10300        26.670700        23.819900
       165.74200        26.750600        22.675900
       168.42200        26.892400        21.789200
       171.14600        27.075800        20.937300
       173.91500        27.227200        20.118600
       176.72700        27.337800        19.332000
       179.58600        27.398600        18.576100
       182.49100        27.376700        17.849800
       185.44200        27.286000        17.256000
       188.44200        27.247500        16.748000
       191.48900        27.223700        16.255000
       194.58700        27.194000        15.776500
       197.73400        27.149100        15.312000
       200.93200        27.080900        14.861300
       204.18200        26.975800        14.423800
       207.48500        26.770400        14.058100
       210.84000        26.623400        13.799100
       214.25100        26.521800        13.545000
       217.71600        26.423300        13.295500
       221.23700        26.317100        13.050600
       224.81600        26.187300        12.810200
       228.45200        25.958100        12.636300
       232.14700        25.806000        12.577300
       235.90200        25.721800        12.518600
       239.71700        25.660700        12.460200
       243.59500        25.615900        12.402000
       247.53500        25.582200        12.344100
       251.53800        25.555800        12.286500
       255.60700        25.532900        12.229200
       259.74100        25.508500        12.172100
       263.94200        25.466800        12.122800
       268.21100        25.441700        12.110300
       272.54900        25.432300        12.097700
       276.95700        25.431800        12.085200
       281.43700        25.435600        12.072600
       285.98900        25.440600        12.060100
       290.61500        25.443400        12.047600
       295.31500        25.437700        12.035100
       300.09200        25.402200        12.022600
       304.94500        25.356500        12.090300
       309.87800        25.353000        12.184500
       314.89000        25.385700        12.279400
       319.98300        25.437900        12.375000
       325.15800        25.507400        12.471400
       330.41800        25.593600        12.568600
       335.76200        25.697400        12.666500
       341.19200        25.825900        12.765100
       346.71100        25.974400        12.835300
       352.31900        26.116900        12.893800
       358.01700        26.262500        12.959200
       363.80800        26.420500        13.025000
       369.69200        26.602100        13.091100
       375.67200        26.805300        13.131700
       381.74800        27.002800        13.152400
       387.92200        27.204500        13.173100
       394.19700        27.460200        13.193800
       400.57300        27.701700        13.109500
       407.05200        27.895400        13.020600
       413.63500        28.066500        12.932200
       420.32600        28.222700        12.844400
       427.12400        28.367000        12.757300
       434.03200        28.501300        12.670700
       441.05200        28.626600        12.584700
       448.18600        28.741400        12.499300
       455.43500        28.845100        12.420400
       462.80200        28.949000        12.350100
       470.28700        29.052000        12.280100
       477.89400        29.152600        12.210600
       485.62300        29.250500        12.141500
       493.47800        29.345700        12.072800
       501.45900        29.438400        12.004500
       509.57000        29.528800        11.936500
       517.81200        29.617200        11.869000
       526.18700        29.704800        11.801800
       534.69800        29.794500        11.735000
       543.34600        29.885800        11.657300
       552.13400        29.970500        11.573500
       561.06500        30.047100        11.482500
       570.13900        30.112400        11.388600
       579.36100        30.168100        11.296900
       588.73200        30.216900        11.206300
       598.25400        30.259800        11.116900
       607.93000        30.297000        11.028200
       617.76300        30.329400        10.940200
       627.75500        30.359700        10.852300
       637.90800        30.386300        10.757600
       648.22600        30.404400        10.652900
       658.71100        30.403500        10.542200
       669.36500        30.382700        10.432700
       680.19100        30.344000        10.340000
       691.19300        30.304400        10.260100
       702.37200        30.274100        10.182700
       713.73300        30.241400        10.089100
       725.27700        30.188400        9.9848400
       737.00800        30.117700        9.8815200
       748.92800        30.031600        9.7793100
       761.04200        29.931000        9.6780200
       773.35100        29.816600        9.5759800
       785.85900        29.685400        9.4686200
       798.57000        29.529000        9.3572200
       811.48600        29.347600        9.2473800
       824.61100        29.140600        9.1386700
       837.94900        28.906400        9.0311100
       851.50200        28.641700        8.9227700
       865.27400        28.341900        8.8132200
       879.26900        27.999400        8.7027900
       893.49100        27.609200        8.5937200
       907.94300        27.164200        8.4860400
       922.62800        26.656400        8.3797500
       937.55100        26.069600        8.2691800
       952.71500        25.384300        8.1584800
       968.12400        24.573500        8.0478700
       983.78300        23.600900        7.9390300
       999.69500        22.408900        7.8311200
       1015.8600        20.900300        7.7240900
       1032.2900        18.889500        7.6139300
       1048.9900        15.965000        7.5041100
       1065.9600        10.826500        7.3946000
       1083.2000       -23.692600        7.2866800
       1083.3000       -29.095300        7.2860600
       1083.5000       -29.092800        31.644500
       1100.7200        10.960400        31.627600
       1118.5200        16.582700        31.610400
       1136.6100        19.963800        31.593000
       1155.0000        22.438600        31.575700
       1173.6800        24.422500        31.558500
       1192.6600        26.099700        31.541000
       1211.9500        27.568300        31.523600
       1231.5500        28.887000        31.506300
       1251.4700        30.094100        31.489600
       1271.7200        31.216100        31.473200
       1292.2900        32.272500        31.457300
       1313.1900        33.278100        31.441600
       1334.4300        34.244500        31.425900
       1356.0100        35.181500        31.410000
       1377.9400        36.098100        31.394100
       1400.2300        37.004000        31.378300
       1422.8800        37.911100        31.362400
       1445.8900        38.843000        31.346900
       1469.2800        39.846000        31.268200
       1493.0400        40.928700        31.093500
       1517.1900        41.622900        30.520600
       1541.7300        41.790500        30.389000
       1566.6700        43.012500        31.161100
       1592.0100        44.518100        30.688300
       1617.7600        45.495800        30.036800
       1643.9200        46.265200        29.399100
       1670.5100        46.754300        28.775100
       1697.5300        46.973200        28.452800
       1724.9900        47.810200        28.669400
       1752.8900        48.852500        28.218800
       1781.2400        49.612900        27.630500
       1810.0500        50.256100        27.051600
       1839.3200        50.826800        26.484600
       1869.0700        51.344500        25.929300
       1899.3000        51.819100        25.385600
       1930.0200        52.257700        24.853600
       1961.2400        52.665100        24.332700
       1992.9600        53.041000        23.822600
       2025.2000        53.409000        23.335600
       2057.9500        53.756900        22.833400
       2091.2400        54.074100        22.339800
       2125.0600        54.369500        21.854900
       2159.4300        54.644400        21.378000
       2194.3600        54.900900        20.910200
       2229.8500        55.139700        20.450100
       2265.9200        55.361900        19.999000
       2302.5700        55.569200        19.556500
       2339.8100        55.762400        19.122100
       2377.6600        55.941800        18.695600
       2416.1100        56.108200        18.277400
       2455.1900        56.262400        17.867500
       2494.9000        56.405100        17.465500
       2535.2600        56.537000        17.071600
       2576.2600        56.658600        16.685600
       2617.9300        56.770300        16.307200
       2660.2700        56.873000        15.936700
       2703.3000        56.966400        15.573300
       2747.0300        57.051500        15.218000
       2791.4600        57.128600        14.869400
       2836.6100        57.198100        14.528700
       2882.4900        57.259900        14.194400
       2929.1100        57.315000        13.868100
       2976.4800        57.363800        13.548100
       3024.6300        57.406100        13.234900
       3073.5500        57.442000        12.927900
       3123.2600        57.471600        12.627900
       3173.7800        57.496000        12.334800
       3225.1100        57.515100        12.047600
       3277.2700        57.528800        11.766800
       3330.2800        57.537500        11.492000
       3384.1500        57.541400        11.223200
       3438.8800        57.540500        10.960300
       3494.5000        57.535000        10.703300
       3551.0200        57.525100        10.451900
       3608.4600        57.510800        10.206000
       3666.8200        57.492300        9.9656500
       3726.1300        57.469600        9.7306600
       3786.4000        57.442800        9.5008300
       3847.6400        57.411900        9.2762000
       3909.8700        57.377000        9.0565900
       3973.1100        57.338000        8.8419100
       4037.3800        57.295100        8.6321000
       4102.6800        57.248200        8.4270300
       4169.0300        57.197200        8.2264200
       4236.4600        57.142000        8.0305200
       4304.9800        57.082600        7.8389100
       4374.6200        57.018800        7.6517400
       4445.3700        56.950500        7.4687700
       4517.2700        56.877400        7.2899400
       4590.3300        56.799500        7.1152700
       4664.5800        56.716400        6.9444100
       4740.0300        56.627700        6.7775200
       4816.6900        56.533100        6.6144300
