;  Atomic scattering factors for Sn.
;   
;  Concatenation of data from CXRO <http://www-cxro.lbl.gov>
;  and LLNL <http://www-phys.llnl.gov/V_Div/scattering/asf.html>
;  
;  E (eV) f1 f2
;---------------
       10.000000       -9999.0000        3.9734400
       10.161700       -9999.0000        3.9409500
       10.326100       -9999.0000        3.9087100
       10.493100       -9999.0000        3.8767500
       10.662800       -9999.0000        3.8450400
       10.835300       -9999.0000        3.8135900
       11.010600       -9999.0000        3.7824000
       11.188600       -9999.0000        3.7514600
       11.369600       -9999.0000        3.7207800
       11.553500       -9999.0000        3.6468800
       11.740400       -9999.0000        3.5718900
       11.930300       -9999.0000        3.4984500
       12.123200       -9999.0000        3.4265200
       12.319300       -9999.0000        3.3057400
       12.518600       -9999.0000        3.1508900
       12.721000       -9999.0000        3.0033000
       12.926800       -9999.0000        2.8626200
       13.135900       -9999.0000        2.7251100
       13.348300       -9999.0000        2.4831600
       13.564200       -9999.0000        2.2627000
       13.783600       -9999.0000        2.0618100
       14.006600       -9999.0000        1.8998700
       14.233100       -9999.0000        1.7544900
       14.463300       -9999.0000        1.6202400
       14.697300       -9999.0000        1.4962600
       14.935000       -9999.0000        1.3817700
       15.176500       -9999.0000        1.2760400
       15.422000       -9999.0000        1.1824200
       15.671400       -9999.0000        1.1019600
       15.924900       -9999.0000        1.0269800
       16.182500       -9999.0000       0.95710500
       16.444200       -9999.0000       0.89297000
       16.710200       -9999.0000       0.84945900
       16.980500       -9999.0000       0.80806800
       17.255100       -9999.0000       0.76869500
       17.534200       -9999.0000       0.73607300
       17.817800       -9999.0000       0.71069500
       18.106000       -9999.0000       0.68619400
       18.398900       -9999.0000       0.66253600
       18.696400       -9999.0000       0.64628000
       18.998800       -9999.0000       0.63378200
       19.306100       -9999.0000       0.62152600
       19.618400       -9999.0000       0.60950700
       19.935700       -9999.0000       0.60255600
       20.258200       -9999.0000       0.60072700
       20.585800       -9999.0000       0.59890300
       20.918800       -9999.0000       0.59839100
       21.257100       -9999.0000       0.61196700
       21.600900       -9999.0000       0.62585200
       21.950300       -9999.0000       0.64096700
       22.305300       -9999.0000       0.67193900
       22.666100       -9999.0000       0.70440700
       23.032700       -9999.0000       0.75930400
       23.405300       -9999.0000       0.85533900
       23.783800       -9999.0000        1.1389000
       24.168500       -9999.0000        1.8524700
       24.559400       -9999.0000        3.0567700
       24.956600       -9999.0000        3.7142400
       25.360300       -9999.0000        4.0066400
       25.770500       -9999.0000        4.1663800
       26.187300       -9999.0000        4.3324900
       26.610900       -9999.0000        4.5052300
       27.041300       -9999.0000        4.6420400
       27.478600       -9999.0000        4.7165000
       27.923100       -9999.0000        4.7921600
       28.374700       -9999.0000        4.8690300
       28.833700       -9999.0000        4.9418800
       29.300000      -0.61752100        4.8438400
       29.773900      -0.53060300        4.7477400
       30.255500      -0.49323800        4.6535400
       30.744900      -0.50423600        4.5369300
       31.242100      -0.57913800        4.4230200
       31.747500      -0.74025900        4.3514300
       32.260900      -0.89143600        4.3542700
       32.782700       -1.0466100        4.3571100
       33.313000       -1.2359700        4.3599500
       33.851800       -1.4955200        4.4378900
       34.399300       -1.6989000        4.5786700
       34.955700       -1.8856200        4.7239200
       35.521100       -2.0738500        4.8737800
       36.095600       -2.2842000        5.0464200
       36.679400       -2.4773900        5.2591100
       37.272700       -2.6592900        5.4807700
       37.875500       -2.8383900        5.7117700
       38.488200       -3.0236600        5.9525100
       39.110700       -3.2302200        6.2053000
       39.743200       -3.4324600        6.5276900
       40.386100       -3.6105000        6.8668300
       41.039300       -3.7749400        7.2235800
       41.703100       -3.9284200        7.5988700
       42.377600       -4.0715300        7.9936600
       43.063000       -4.2041900        8.4089500
       43.759500       -4.3266800        8.8458200
       44.467300       -4.4410200        9.3096300
       45.186500       -4.5347400        9.8036300
       45.917400       -4.6069100        10.323900
       46.660000       -4.6549900        10.871700
       47.414700       -4.6741100        11.448600
       48.181600       -4.6523400        12.056100
       48.960900       -4.5627300        12.695800
       49.752800       -4.4383000        13.270100
       50.557600       -4.3158800        13.866400
       51.375300       -4.1707400        14.489500
       52.206200       -3.9894400        15.140600
       53.050600       -3.7491700        15.821000
       53.908700       -3.3980400        16.497600
       54.780600       -3.0428400        17.091500
       55.666700       -2.6821700        17.706700
       56.567000       -2.2786600        18.344100
       57.482000       -1.8013100        19.004500
       58.411700       -1.1627000        19.688600
       59.356400      -0.46087300        20.056500
       60.316500       0.12970700        20.400000
       61.292100       0.67051300        20.749300
       62.283400        1.2027500        21.104600
       63.290800        1.7396100        21.466000
       64.314500        2.2996300        21.832100
       65.354700        2.8672500        22.159700
       66.411800        3.4334000        22.492100
       67.485900        4.0098700        22.829600
       68.577500        4.6072000        23.172100
       69.686700        5.2361400        23.519700
       70.813800        5.9235700        23.872600
       71.959100        6.6403200        24.138900
       73.123000        7.3562800        24.404300
       74.305700        8.0990200        24.672600
       75.507600        8.9192300        24.943800
       76.728900        9.7630900        25.065400
       77.969900        10.583200        25.183300
       79.231000        11.421200        25.301800
       80.512500        12.355600        25.420800
       81.814700        13.286500        25.290400
       83.138000        14.130400        25.155300
       84.482700        14.930300        25.020900
       85.849100        15.719900        24.887200
       87.237700        16.514500        24.754300
       88.648700        17.342800        24.622000
       90.082500        18.303200        24.409500
       91.539500        19.153800        24.044900
       93.020100        19.927400        23.685700
       94.524600        20.679700        23.331900
       96.053500        21.428600        22.983400
       97.607100        22.192600        22.640000
       99.185800        22.995400        22.301800
       100.79000        23.894100        21.968700
       102.42000        25.118300        21.640500
       104.07700        26.333100        20.508500
       105.76000        27.062100        19.282300
       107.47100        27.549000        18.129500
       109.20900        27.888300        17.045600
       110.97500        28.123200        16.026500
       112.77000        28.281600        15.068300
       114.59400        28.384300        14.167300
       116.44800        28.451600        13.320300
       118.33100        28.521200        12.523900
       120.24500        28.634200        11.642100
       122.19000        28.583000        10.719900
       124.16600        28.418800        9.8707800
       126.17500        28.200700        9.0888600
       128.21500        27.944400        8.3688800
       130.28900        27.660400        7.7059600
       132.39700        27.357500        7.0955500
       134.53800        27.041700        6.5334800
       136.71400        26.719900        6.0159400
       138.92500        26.399000        5.5393900
       141.17200        26.092400        5.1006000
       143.45600        25.850900        4.6965600
       145.77600        25.573100        4.1048200
       148.13400        25.158100        3.5549300
       150.53000        24.649900        3.0786900
       152.96400        24.059500        2.6662600
       155.43900        23.472100        2.4519100
       157.95300        22.926500        2.2691800
       160.50700        22.390500        2.1490000
       163.10300        21.866700        2.0632200
       165.74200        21.382800        2.0875700
       168.42200        20.948000        2.1212300
       171.14600        20.551400        2.1908200
       173.91500        20.192600        2.2706200
       176.72700        19.850200        2.3533200
       179.58600        19.514700        2.4764300
       182.49100        19.229000        2.6339100
       185.44200        18.986600        2.8014100
       188.44200        18.810200        2.9584000
       191.48900        18.633400        3.0823000
       194.58700        18.456700        3.2113800
       197.73400        18.292300        3.3458700
       200.93200        18.141400        3.4860000
       204.18200        18.005500        3.6319900
       207.48500        17.887800        3.7840900
       210.84000        17.800000        3.9425700
       214.25100        17.725200        4.0652400
       217.71600        17.648100        4.1881200
       221.23700        17.572700        4.3147100
       224.81600        17.504800        4.4451300
       228.45200        17.446200        4.5794900
       232.14700        17.399300        4.7179100
       235.90200        17.367900        4.8605200
       239.71700        17.362800        5.0074300
       243.59500        17.394100        5.1162700
       247.53500        17.405700        5.1941300
       251.53800        17.400700        5.2731800
       255.60700        17.393800        5.3534300
       259.74100        17.387200        5.4349000
       263.94200        17.383000        5.5176100
       268.21100        17.383300        5.6015800
       272.54900        17.393500        5.6868300
       276.95700        17.416000        5.7553400
       281.43700        17.431000        5.8125900
       285.98900        17.440900        5.8704100
       290.61500        17.453100        5.9288000
       295.31500        17.473300        5.9877700
       300.09200        17.523800        6.0311700
       304.94500        17.548000        6.0308500
       309.87800        17.552200        6.0305300
       314.89000        17.545300        6.0302000
       319.98300        17.530600        6.0298800
       325.15800        17.511300        6.0295600
       330.41800        17.496700        6.0292300
       335.76200        17.474200        5.9958200
       341.19200        17.428100        5.9560700
       346.71100        17.360900        5.9165700
       352.31900        17.277900        5.8773300
       358.01700        17.179700        5.8383600
       363.80800        17.066600        5.7996400
       369.69200        16.941200        5.7611800
       375.67200        16.804300        5.7138300
       381.74800        16.637700        5.6547700
       387.92200        16.441800        5.5963100
       394.19700        16.216400        5.5384700
       400.57300        15.958800        5.4812200
       407.05200        15.658700        5.4245700
       413.63500        15.314300        5.3863300
       420.32600        14.941500        5.3628900
       427.12400        14.527500        5.3395500
       434.03200        14.056900        5.3163100
       441.05200        13.502300        5.2931800
       448.18600        12.864200        5.3224300
       455.43500        12.141900        5.3654100
       462.80200        11.247300        5.4570800
       470.28700        10.255300        5.6479600
       477.89400        9.0916400        5.8455200
       484.80000        7.9750200        6.0280400
       485.00000        7.8772600        5.6171300
       485.62300        7.3779800        5.7346600
       493.47800        4.9725000        7.4281300
       501.45900        3.2141100        9.6216200
       509.57000        1.7852600        12.462800
       517.81200       0.93542500        16.143100
       526.18700        2.9427700        20.520300
       534.69800        5.1076100        22.224800
       543.34600        7.3039800        23.853200
       552.13400        9.1784700        24.622200
       561.06500        10.754000        25.416000
       570.13900        12.522600        25.991300
       579.36100        13.992700        26.110600
       588.73200        15.241600        26.230300
       598.25400        16.434200        26.350700
       607.93000        17.658200        26.348700
       617.76300        18.676800        26.132300
       627.75500        19.524400        25.917700
       637.90800        20.243700        25.704900
       648.22600        20.844700        25.523300
       658.71100        21.395800        25.393200
       669.36500        21.892300        25.263800
       680.19100        22.355000        25.135000
       691.19300        22.784500        24.882500
       702.37200        22.419000        24.439800
       713.73300        21.816400        25.168900
       725.27700        21.960900        26.506800
       737.00800        22.798000        27.915700
       748.92800        24.505400        28.747200
       761.04200        25.992800        28.786600
       773.35100        27.208200        28.826000
       785.85900        28.356200        28.636900
       798.57000        29.335500        28.387900
       811.48600        30.224100        28.141100
       824.61100        31.089200        27.896400
       837.94900        31.921000        27.586900
       851.50200        32.669400        27.239700
       865.27400        33.355800        26.896800
       879.26900        33.993200        26.558300
       893.49100        34.563200        26.224100
       907.94300        35.127800        25.995100
       922.62800        35.731200        25.781800
       937.55100        36.380600        25.570100
       952.71500        37.069400        25.360300
       968.12400        38.071900        25.152100
       983.78300        39.154000        24.341300
       999.69500        39.352900        23.291200
       1015.8600        39.506800        22.869800
       1032.2900        39.868700        22.408300
       1048.9900        40.208300        21.951200
       1065.9600        40.526000        21.498700
       1083.2000        40.824400        21.055400
       1100.7200        41.104800        20.621200
       1118.5200        41.368100        20.196100
       1136.6100        41.615500        19.779600
       1155.0000        41.847900        19.371700
       1173.6800        42.066000        18.972300
       1192.6600        42.270700        18.581000
       1211.9500        42.462800        18.197900
       1231.5500        42.643100        17.822800
       1251.4700        42.812200        17.455600
       1271.7200        42.970500        17.096400
       1292.2900        43.119600        16.745200
       1313.1900        43.259700        16.401000
       1334.4300        43.391000        16.063900
       1356.0100        43.514000        15.733800
       1377.9400        43.629200        15.410300
       1400.2300        43.736800        15.093600
       1422.8800        43.837100        14.783400
       1445.8900        43.930300        14.479600
       1469.2800        44.016600        14.182500
       1493.0400        44.096000        13.892100
       1517.1900        44.170400        13.610400
       1541.7300        44.240800        13.334900
       1566.6700        44.307200        13.064900
       1592.0100        44.369300        12.800400
       1617.7600        44.427600        12.541100
       1643.9200        44.481800        12.286900
       1670.5100        44.532500        12.038300
       1697.5300        44.580300        11.794600
       1724.9900        44.628700        11.555600
       1752.8900        44.673400        11.314600
       1781.2400        44.711500        11.076200
       1810.0500        44.743500        10.841100
       1839.3200        44.769700        10.611100
       1869.0700        44.791600        10.386000
       1899.3000        44.809300        10.165400
       1930.0200        44.823000        9.9496000
       1961.2400        44.833200        9.7384600
       1992.9600        44.838800        9.5318500
       2025.2000        44.847000        9.3339700
       2057.9500        44.853400        9.1316900
       2091.2400        44.853200        8.9320500
       2125.0600        44.848700        8.7361100
       2159.4300        44.840200        8.5432000
       2194.3600        44.827800        8.3538700
       2229.8500        44.811200        8.1675300
       2265.9200        44.790900        7.9849400
       2302.5700        44.767000        7.8050800
       2339.8100        44.738800        7.6282400
       2377.6600        44.706600        7.4547400
       2416.1100        44.670300        7.2840600
       2455.1900        44.629800        7.1165400
       2494.9000        44.585000        6.9517000
       2535.2600        44.535500        6.7898400
       2576.2600        44.481300        6.6307800
       2617.9300        44.422100        6.4745400
       2660.2700        44.357700        6.3210400
       2703.3000        44.287700        6.1701800
       2747.0300        44.211900        6.0220200
       2791.4600        44.129700        5.8764700
       2836.6100        44.040900        5.7335200
       2882.4900        43.944700        5.5930300
       2929.1100        43.840500        5.4550200
       2976.4800        43.727400        5.3194700
       3024.6300        43.604700        5.1863100
       3073.5500        43.471200        5.0555500
       3123.2600        43.325500        4.9270400
       3173.7800        43.165900        4.8008200
       3225.1100        42.990500        4.6768800
       3277.2700        42.796700        4.5551200
       3330.2800        42.581100        4.4354400
       3384.1500        42.339600        4.3179400
       3438.8800        42.066400        4.2025200
       3494.5000        41.753800        4.0892200
       3551.0200        41.390600        3.9778700
       3608.4600        40.959700        3.8684100
       3666.8200        40.434200        3.7610500
       3726.1300        39.766100        3.6555900
       3786.4000        38.855500        3.5519100
       3847.6400        37.430300        3.4500400
       3909.8700        33.878100        3.3500300
       3928.7000        21.367000        3.3206500
       3928.9000        21.368700        10.816500
       3973.1100        35.782400        10.625800
       4037.3800        37.543600        10.358100
       4102.6800        37.821600        10.097200
       4156.0000        31.145200        9.8919100
       4156.2000        31.148000        13.588000
       4169.0300        37.020200        13.523300
       4236.4600        39.780800        13.191700
       4304.9800        40.916300        12.869000
       4374.6200        41.572900        12.555000
       4445.3700        41.560700        12.247100
       4464.6000        39.149100        12.165600
