;  Atomic scattering factors for Sr.
;   
;  Concatenation of data from CXRO <http://www-cxro.lbl.gov>
;  and LLNL <http://www-phys.llnl.gov/V_Div/scattering/asf.html>
;  
;  E (eV) f1 f2
;---------------
       10.000000       -9999.0000       0.17126200
       10.161700       -9999.0000       0.17489600
       10.326100       -9999.0000       0.17860800
       10.493100       -9999.0000       0.18239800
       10.662800       -9999.0000       0.18626900
       10.835300       -9999.0000       0.19061400
       11.010600       -9999.0000       0.19513600
       11.188600       -9999.0000       0.19976600
       11.369600       -9999.0000       0.20450500
       11.553500       -9999.0000       0.20935700
       11.740400       -9999.0000       0.21432400
       11.930300       -9999.0000       0.21941000
       12.123200       -9999.0000       0.22538500
       12.319300       -9999.0000       0.23152200
       12.518600       -9999.0000       0.23782700
       12.721000       -9999.0000       0.24430300
       12.926800       -9999.0000       0.25095500
       13.135900       -9999.0000       0.25801400
       13.348300       -9999.0000       0.26692500
       13.564200       -9999.0000       0.27614400
       13.783600       -9999.0000       0.28568100
       14.006600       -9999.0000       0.29554700
       14.233100       -9999.0000       0.30575500
       14.463300       -9999.0000       0.31641000
       14.697300       -9999.0000       0.32906700
       14.935000       -9999.0000       0.34223000
       15.176500       -9999.0000       0.35592000
       15.422000       -9999.0000       0.37015700
       15.671400       -9999.0000       0.38496400
       15.924900       -9999.0000       0.40036300
       16.182500       -9999.0000       0.41692200
       16.444200       -9999.0000       0.43417700
       16.710200       -9999.0000       0.45214700
       16.980500       -9999.0000       0.47086000
       17.255100       -9999.0000       0.49034700
       17.534200       -9999.0000       0.51064100
       17.817800       -9999.0000       0.53270300
       18.106000       -9999.0000       0.56054700
       18.398900       -9999.0000       0.58984700
       18.696400       -9999.0000       0.62067900
       18.998800       -9999.0000       0.65312200
       19.306100       -9999.0000       0.68726100
       19.618400       -9999.0000       0.72386300
       19.935700       -9999.0000       0.76965300
       20.258200       -9999.0000       0.81834100
       20.585800       -9999.0000       0.87010700
       20.918800       -9999.0000       0.92514800
       21.257100       -9999.0000       0.98367200
       21.600900       -9999.0000        1.0643100
       21.950300       -9999.0000        1.1678800
       22.305300       -9999.0000        1.2815300
       22.666100       -9999.0000        2.5818400
       23.032700       -9999.0000        5.6716100
       23.405300       -9999.0000        12.336800
       23.783800       -9999.0000        13.411800
       24.168500       -9999.0000        14.558500
       24.559400       -9999.0000        15.778200
       24.956600       -9999.0000        16.896400
       25.360300       -9999.0000        17.761400
       25.770500       -9999.0000        18.670600
       26.187300       -9999.0000        19.229800
       26.610900       -9999.0000        19.774700
       27.041300       -9999.0000        20.335000
       27.478600       -9999.0000        20.456000
       27.923100       -9999.0000        20.388200
       28.374700       -9999.0000        20.320700
       28.833700       -9999.0000        20.087500
       29.300000        5.5814100        19.780900
       29.773900        6.6073000        19.479000
       30.255500        7.6308400        19.181700
       30.744900        8.7709000        18.744500
       31.242100        9.6912500        18.064300
       31.747500        10.442900        17.408700
       32.260900        11.091800        16.776900
       32.782700        11.669800        16.168100
       33.313000        12.195000        15.581300
       33.851800        12.684300        15.015900
       34.399300        13.161300        14.470900
       34.955700        13.686200        13.929200
       35.521100        14.136200        13.175100
       36.095600        14.442700        12.461800
       36.679400        14.664300        11.787200
       37.272700        14.830300        11.149100
       37.875500        14.952200        10.545500
       38.488200        15.038600        9.9746500
       39.110700        15.095800        9.4346700
       39.743200        15.129100        8.9239200
       40.386100        15.143100        8.4408100
       41.039300        15.142100        7.9838600
       41.703100        15.130400        7.5516500
       42.377600        15.116000        7.1428400
       43.063000        15.115400        6.7561600
       43.759500        15.120700        6.3163000
       44.467300        15.058300        5.8777400
       45.186500        14.962000        5.4696500
       45.917400        14.844700        5.0898800
       46.660000        14.712700        4.7364800
       47.414700        14.569800        4.4076200
       48.181600        14.418900        4.1015900
       48.960900        14.261900        3.8168200
       49.752800        14.100600        3.5518100
       50.557600        13.935900        3.3052000
       51.375300        13.768300        3.0757200
       52.206200        13.598200        2.8650700
       53.050600        13.430500        2.6704400
       53.908700        13.264300        2.4890300
       54.780600        13.099100        2.3199400
       55.666700        12.935000        2.1623300
       56.567000        12.772000        2.0154400
       57.482000        12.610200        1.8785200
       58.411700        12.449300        1.7509100
       59.356400        12.288900        1.6319600
       60.316500        12.129400        1.5233000
       61.292100        11.972400        1.4223500
       62.283400        11.816600        1.3281000
       63.290800        11.661200        1.2401000
       64.314500        11.505400        1.1579200
       65.354700        11.347200        1.0811900
       66.411800        11.180500        1.0095500
       67.485900        11.013600       0.96921200
       68.577500        10.861700       0.93467000
       69.686700        10.717400       0.90135700
       70.813800        10.574600       0.86923400
       71.959100        10.431300       0.84204400
       73.123000        10.282000       0.82387300
       74.305700        10.144300       0.81744300
       75.507600        10.009400       0.81106400
       76.728900        9.8788700       0.81673900
       77.969900        9.7562800       0.82311500
       79.231000        9.6384900       0.82954100
       80.512500        9.5225800       0.83601700
       81.814700        9.4089100       0.84584200
       83.138000        9.2979900       0.85591100
       84.482700        9.1886400       0.86609900
       85.849100        9.0796000       0.87640900
       87.237700        8.9687000       0.88789500
       88.648700        8.8594100       0.90302700
       90.082500        8.7514700       0.91841500
       91.539500        8.6436300       0.93406700
       93.020100        8.5353800       0.94998500
       94.524600        8.4263600       0.96617500
       96.053500        8.3167500       0.98263900
       97.607100        8.2053600       0.99715400
       99.185800        8.0901900        1.0113200
       100.79000        7.9712600        1.0256900
       102.42000        7.8481600        1.0402600
       104.07700        7.7203000        1.0550500
       105.76000        7.5869100        1.0700400
       107.47100        7.4468600        1.0852400
       109.20900        7.2990300        1.1019000
       110.97500        7.1436800        1.1195400
       112.77000        6.9789700        1.1374600
       114.59400        6.8022200        1.1556700
       116.44800        6.6082700        1.1741700
       118.33100        6.3957700        1.2026400
       120.24500        6.1644800        1.2354600
       122.19000        5.9105900        1.2844200
       124.16600        5.6234800        1.3391500
       126.17500        5.2997400        1.4454100
       128.21500        4.9005900        1.5765200
       130.28900        4.6043900        1.9948500
       132.39700        4.5632500        2.2146600
       134.53800        4.3780600        2.2855300
       136.71400        4.0774300        2.4190500
       138.92500        3.7199800        2.5755700
       141.17200        3.3410800        2.8681800
       143.45600        2.9786100        3.2032800
       145.77600        2.6165000        3.6209200
       148.13400        2.3240500        4.1255000
       150.53000        2.1297300        4.6273600
       152.96400        1.9380400        5.1312500
       155.43900        1.7701800        5.6899900
       157.95300        1.6945600        6.3095900
       160.50700        1.7214900        6.8370800
       163.10300        1.7223400        7.3391000
       165.74200        1.7273300        7.8779600
       168.42200        1.8224700        8.4178000
       171.14600        1.8982200        8.8944800
       173.91500        1.9747300        9.3981600
       176.72700        2.0811100        9.9303500
       179.58600        2.2721100        10.492700
       182.49100        2.4902900        10.923300
       185.44200        2.6837600        11.360800
       188.44200        2.8759600        11.815700
       191.48900        3.1127500        12.288900
       194.58700        3.3657200        12.690600
       197.73400        3.6057100        13.096800
       200.93200        3.8524400        13.516100
       204.18200        4.1112500        13.928800
       207.48500        4.3828900        14.352800
       210.84000        4.6830200        14.789800
       214.25100        5.0714900        15.240000
       217.71600        5.4628500        15.554000
       221.23700        5.8139000        15.870900
       224.81600        6.1579600        16.194200
       228.45200        6.5092200        16.524100
       232.14700        6.8903600        16.851100
       235.90200        7.2641200        17.142700
       239.71700        7.6332500        17.439300
       243.59500        8.0063000        17.741000
       247.53500        8.3894800        18.048000
       251.53800        8.7867300        18.360200
       255.60700        9.2010000        18.678900
       259.74100        9.6433700        19.008800
       263.94200        10.123500        19.344400
       268.21100        10.658200        19.686000
       272.54900        11.314600        20.022900
       276.95700        11.967200        20.159800
       281.43700        12.590600        20.297700
       285.98900        13.233400        20.436400
       290.61500        14.005600        20.484700
       295.31500        14.640500        20.333100
       300.09200        15.173700        20.182600
       304.94500        15.632700        20.033200
       309.87800        16.027200        19.926700
       314.89000        16.431400        19.865200
       319.98300        16.837300        19.803800
       325.15800        17.238500        19.742800
       330.41800        17.634600        19.682100
       335.76200        18.026200        19.621500
       341.19200        18.413800        19.561000
       346.71100        18.798800        19.500800
       352.31900        19.182600        19.440800
       358.01700        19.566400        19.380800
       363.80800        19.952100        19.320900
       369.69200        20.342400        19.261200
       375.67200        20.740800        19.201600
       381.74800        21.155500        19.142400
       387.92200        21.605300        19.067400
       394.19700        22.081600        18.957300
       400.57300        22.551800        18.758400
       407.05200        22.958300        18.526600
       413.63500        23.327100        18.297700
       420.32600        23.671800        18.071700
       427.12400        23.998600        17.848500
       434.03200        24.310600        17.627600
       441.05200        24.610700        17.409700
       448.18600        24.907100        17.192800
       455.43500        25.192400        16.969400
       462.80200        25.465300        16.741900
       470.28700        25.723500        16.513900
       477.89400        25.969900        16.289900
       485.62300        26.207200        16.068200
       493.47800        26.436100        15.849300
       501.45900        26.658000        15.633400
       509.57000        26.874600        15.420600
       517.81200        27.089400        15.209400
       526.18700        27.301700        14.996100
       534.69800        27.508200        14.775500
       543.34600        27.702500        14.553200
       552.13400        27.890700        14.334500
       561.06500        28.073100        14.110400
       570.13900        28.244400        13.885600
       579.36100        28.404900        13.664000
       588.73200        28.558100        13.446500
       598.25400        28.705500        13.232800
       607.93000        28.848500        13.022600
       617.76300        28.988300        12.815600
       627.75500        29.129400        12.611000
       637.90800        29.270200        12.399100
       648.22600        29.404200        12.175300
       658.71100        29.516700        11.945500
       669.36500        29.607300        11.720100
       680.19100        29.680000        11.522900
       691.19300        29.761200        11.347300
       702.37200        29.866200        11.177500
       713.73300        29.978700        10.987500
       725.27700        30.075100        10.785200
       737.00800        30.160300        10.586500
       748.92800        30.238600        10.391600
       761.04200        30.312300        10.200200
       773.35100        30.382800        10.010900
       785.85900        30.449600        9.8209300
       798.57000        30.508500        9.6310600
       811.48600        30.561000        9.4448000
       824.61100        30.608300        9.2621800
       837.94900        30.651500        9.0831100
       851.50200        30.690700        8.9067100
       865.27400        30.726000        8.7330100
       879.26900        30.757100        8.5620800
       893.49100        30.784300        8.3943800
       907.94300        30.808500        8.2299800
       922.62800        30.831200        8.0688000
       937.55100        30.850400        7.9058800
       952.71500        30.864800        7.7449400
       968.12400        30.873600        7.5861600
       983.78300        30.877900        7.4307600
       999.69500        30.878100        7.2786000
       1015.8600        30.874200        7.1296400
       1032.2900        30.868800        6.9853600
       1048.9900        30.861600        6.8412900
       1065.9600        30.849000        6.6972600
       1083.2000        30.831300        6.5563400
       1100.7200        30.809400        6.4184200
       1118.5200        30.783500        6.2834200
       1136.6100        30.753600        6.1511000
       1155.0000        30.719700        6.0216600
       1173.6800        30.682200        5.8950900
       1192.6600        30.640800        5.7709100
       1211.9500        30.595400        5.6494600
       1231.5500        30.547000        5.5307400
       1251.4700        30.495100        5.4122900
       1271.7200        30.438500        5.2943700
       1292.2900        30.374600        5.1766100
       1313.1900        30.303700        5.0612700
       1334.4300        30.225800        4.9485300
       1356.0100        30.141000        4.8383800
       1377.9400        30.048900        4.7307000
       1400.2300        29.949100        4.6254400
       1422.8800        29.841000        4.5225800
       1445.8900        29.723700        4.4219000
       1469.2800        29.596300        4.3235100
       1493.0400        29.457800        4.2274300
       1517.1900        29.306900        4.1338300
       1541.7300        29.142100        4.0424100
       1566.6700        28.961500        3.9530700
       1592.0100        28.762500        3.8658000
       1617.7600        28.542200        3.7804500
       1643.9200        28.296400        3.6969500
       1670.5100        28.019800        3.6152000
       1697.5300        27.705600        3.5352700
       1724.9900        27.342200        3.4571300
       1752.8900        26.918400        3.3843800
       1781.2400        26.415400        3.3144300
       1810.0500        25.800000        3.2468400
       1839.3200        25.013800        3.1806400
       1869.0700        23.936300        3.1157800
       1899.3000        22.243800        3.0522300
       1930.0200        18.050300        2.9899800
       1939.5000        5.2801000        2.9712300
       1939.7000        5.2840300        11.764000
       1961.2400        20.056600        11.462400
       1992.9600        21.094300        11.037900
       2006.7000        15.235800        10.860900
       2006.9000        15.250100        15.132000
       2025.2000        22.885400        14.947900
       2057.9500        25.203300        14.627900
       2091.2400        26.558500        14.314800
       2125.0600        27.498700        14.008200
       2159.4300        28.134400        13.708300
       2194.3600        28.322700        13.414400
       2216.2000        25.595200        13.236100
       2216.4000        25.605100        15.207700
       2229.8500        28.767000        15.077900
       2265.9200        30.192900        14.739000
       2302.5700        31.080500        14.405400
       2339.8100        31.786500        14.076700
       2377.6600        32.384800        13.752900
       2416.1100        32.907400        13.434800
       2455.1900        33.371500        13.121900
       2494.9000        33.788400        12.814500
       2535.2600        34.165400        12.512100
       2576.2600        34.508200        12.215200
       2617.9300        34.821100        11.923800
       2660.2700        35.108100        11.638300
       2703.3000        35.371800        11.357500
       2747.0300        35.614300        11.082100
       2791.4600        35.837300        10.812300
       2836.6100        36.043400        10.548300
       2882.4900        36.233900        10.289000
       2929.1100        36.409700        10.035000
       2976.4800        36.571800        9.7863400
       3024.6300        36.721800        9.5431500
       3073.5500        36.860400        9.3047300
       3123.2600        36.988400        9.0716500
       3173.7800        37.106400        8.8432800
       3225.1100        37.215200        8.6201900
       3277.2700        37.315400        8.4019400
       3330.2800        37.407900        8.1887100
       3384.1500        37.492900        7.9800100
       3438.8800        37.570900        7.7760300
       3494.5000        37.642200        7.5764700
       3551.0200        37.707200        7.3819300
       3608.4600        37.766800        7.1917900
       3666.8200        37.821000        7.0060200
       3726.1300        37.870100        6.8245800
       3786.4000        37.914500        6.6474200
       3847.6400        37.954400        6.4744000
       3909.8700        37.990100        6.3055300
       3973.1100        38.021800        6.1407400
       4037.3800        38.049900        5.9799100
       4102.6800        38.074600        5.8229800
       4169.0300        38.095900        5.6698500
       4236.4600        38.114200        5.5204800
       4304.9800        38.129700        5.3748000
       4374.6200        38.142400        5.2327000
       4445.3700        38.152700        5.0941100
       4517.2700        38.160500        4.9589200
