;  Atomic scattering factors for Ta.
;   
;  Concatenation of data from CXRO <http://www-cxro.lbl.gov>
;  and LLNL <http://www-phys.llnl.gov/V_Div/scattering/asf.html>
;  
;  E (eV) f1 f2
;---------------
       10.000000       -9999.0000        3.1372000
       10.161700       -9999.0000        3.2522800
       10.326100       -9999.0000        3.3715900
       10.493100       -9999.0000        3.4951700
       10.662800       -9999.0000        3.6219900
       10.835300       -9999.0000        3.7534200
       11.010600       -9999.0000        3.8896200
       11.188600       -9999.0000        4.0307500
       11.369600       -9999.0000        4.1770100
       11.553500       -9999.0000        4.3246800
       11.740400       -9999.0000        4.4698800
       11.930300       -9999.0000        4.6199500
       12.123200       -9999.0000        4.7750700
       12.319300       -9999.0000        4.9353900
       12.518600       -9999.0000        5.1010900
       12.721000       -9999.0000        5.2402600
       12.926800       -9999.0000        5.3771300
       13.135900       -9999.0000        5.5175900
       13.348300       -9999.0000        5.6617100
       13.564200       -9999.0000        5.8096000
       13.783600       -9999.0000        5.9613500
       14.006600       -9999.0000        6.0733800
       14.233100       -9999.0000        6.1535800
       14.463300       -9999.0000        6.2348300
       14.697300       -9999.0000        6.3171700
       14.935000       -9999.0000        6.4005800
       15.176500       -9999.0000        6.4828000
       15.422000       -9999.0000        6.5599200
       15.671400       -9999.0000        6.6379500
       15.924900       -9999.0000        6.7169100
       16.182500       -9999.0000        6.7968000
       16.444200       -9999.0000        6.8615400
       16.710200       -9999.0000        6.8468600
       16.980500       -9999.0000        6.8322100
       17.255100       -9999.0000        6.8176000
       17.534200       -9999.0000        6.8030200
       17.817800       -9999.0000        6.7378200
       18.106000       -9999.0000        6.6635800
       18.398900       -9999.0000        6.5901400
       18.696400       -9999.0000        6.5175200
       18.998800       -9999.0000        6.4457000
       19.306100       -9999.0000        6.3706700
       19.618400       -9999.0000        6.2955200
       19.935700       -9999.0000        6.2212600
       20.258200       -9999.0000        6.1478800
       20.585800       -9999.0000        6.0753700
       20.918800       -9999.0000        6.0037100
       21.257100       -9999.0000        5.9328800
       21.600900       -9999.0000        5.8629000
       21.950300       -9999.0000        5.7937500
       22.305300       -9999.0000        5.7254100
       22.666100       -9999.0000        5.6452900
       23.032700       -9999.0000        5.5400400
       23.405300       -9999.0000        5.4367400
       23.783800       -9999.0000        5.3353800
       24.168500       -9999.0000        5.2359000
       24.559400       -9999.0000        5.1522200
       24.956600       -9999.0000        5.0769000
       25.360300       -9999.0000        5.0026900
       25.770500       -9999.0000        4.9295600
       26.187300       -9999.0000        4.8575000
       26.610900       -9999.0000        4.7865000
       27.041300       -9999.0000        4.7198500
       27.478600       -9999.0000        4.6786100
       27.923100       -9999.0000        4.6377200
       28.374700       -9999.0000        4.5972000
       28.833700       -9999.0000        4.5559000
       29.300000        1.9782400        4.5098800
       29.773900        1.6772600        4.4643300
       30.255500        1.3373300        4.5536100
       30.744900        1.0158000        4.6526900
       31.242100       0.64724200        4.7539300
       31.747500       0.21445600        5.0201300
       32.260900      -0.11906900        5.3677400
       32.782700      -0.40513500        5.7394100
       33.313000      -0.65948400        6.1368100
       33.851800      -0.88758600        6.5617400
       34.399300       -1.0920000        7.0169700
       34.955700       -1.2673100        7.5104300
       35.521100       -1.4081800        8.0385800
       36.095600       -1.5097800        8.6038900
       36.679400       -1.5630600        9.2089300
       37.272700       -1.5366900        9.8565400
       37.875500       -1.3699300        10.463000
       38.488200       -1.2406100        11.017400
       39.110700       -1.0993700        11.601100
       39.743200      -0.90936100        12.215700
       40.386100      -0.63526800        12.862900
       41.039300      -0.26785900        13.425100
       41.703100      0.081963700        13.963000
       42.377600       0.46300600        14.522400
       43.063000       0.91165300        15.104200
       43.759500        1.5022000        15.678700
       44.467300        2.1131100        16.059600
       45.186500        2.7020800        16.449700
       45.917400        3.3313700        16.849300
       46.660000        4.0961600        17.176300
       47.414700        4.7968600        17.344400
       48.181600        5.4621900        17.514100
       48.960900        6.1344500        17.685500
       49.752800        6.8589600        17.858500
       50.557600        7.7230400        18.033300
       51.375300        8.6263900        17.867400
       52.206200        9.3718000        17.649100
       53.050600        10.070800        17.433600
       53.908700        10.809900        17.220600
       54.780600        11.564600        16.763700
       55.666700        12.113600        16.232300
       56.567000        12.547900        15.717900
       57.482000        12.900700        15.219700
       58.411700        13.179100        14.737300
       59.356400        13.407700        14.310900
       60.316500        13.613600        13.900400
       61.292100        13.793100        13.501700
       62.283400        13.944300        13.114400
       63.290800        14.068600        12.738300
       64.314500        14.166900        12.372900
       65.354700        14.240100        12.018000
       66.411800        14.288300        11.673300
       67.485900        14.310900        11.338500
       68.577500        14.305900        11.013300
       69.686700        14.267100        10.697300
       70.813800        14.170100        10.393700
       71.959100        14.067200        10.199300
       73.123000        13.985200        10.008600
       74.305700        13.900100        9.8283500
       75.507600        13.817600        9.6605000
       76.728900        13.728200        9.4955200
       77.969900        13.617300        9.3333400
       79.231000        13.448900        9.1739400
       80.512500        13.283400        9.1448900
       81.814700        13.170400        9.1232700
       83.138000        13.079200        9.1017000
       84.482700        12.999000        9.0801800
       85.849100        12.924300        9.0587200
       87.237700        12.850500        9.0373100
       88.648700        12.770500        9.0188100
       90.082500        12.693500        9.0138100
       91.539500        12.618700        9.0088200
       93.020100        12.541300        9.0038300
       94.524600        12.456800        8.9988400
       96.053500        12.360100        8.9938600
       97.607100        12.237100        8.9888800
       99.185800        12.035100        9.0386200
       100.79000        11.896500        9.1672700
       102.42000        11.800500        9.2977600
       104.07700        11.720600        9.4301000
       105.76000        11.652200        9.5643300
       107.47100        11.592000        9.7004600
       109.20900        11.537100        9.8385300
       110.97500        11.483400        9.9785700
       112.77000        11.418700        10.120600
       114.59400        11.349700        10.303800
       116.44800        11.311200        10.506700
       118.33100        11.292800        10.713700
       120.24500        11.290300        10.924700
       122.19000        11.303800        11.139900
       124.16600        11.335700        11.359400
       126.17500        11.401100        11.570200
       128.21500        11.458900        11.752000
       130.28900        11.512800        11.936600
       132.39700        11.567900        12.124200
       134.53800        11.626700        12.314700
       136.71400        11.690400        12.508100
       138.92500        11.761200        12.704600
       141.17200        11.848100        12.902300
       143.45600        11.932700        13.079100
       145.77600        12.006300        13.258400
       148.13400        12.076500        13.452200
       150.53000        12.155800        13.654300
       152.96400        12.241900        13.859400
       155.43900        12.334000        14.067700
       157.95300        12.432200        14.279000
       160.50700        12.537400        14.493600
       163.10300        12.653200        14.711400
       165.74200        12.789900        14.913200
       168.42200        12.904900        15.095300
       171.14600        12.984800        15.297000
       173.91500        13.071100        15.525800
       176.72700        13.176800        15.788800
       179.58600        13.304400        16.057500
       182.49100        13.451900        16.330700
       185.44200        13.617600        16.608000
       188.44200        13.805000        16.889800
       191.48900        14.030500        17.168300
       194.58700        14.262100        17.409600
       197.73400        14.498600        17.641200
       200.93200        14.728900        17.864900
       204.18200        14.961600        18.091300
       207.48500        15.203100        18.320800
       210.84000        15.467000        18.553500
       214.25100        15.737500        18.748800
       217.71600        16.004100        18.937800
       221.23700        16.261600        19.122200
       224.81600        16.517000        19.307900
       228.45200        16.773000        19.495700
       232.14700        17.031600        19.685400
       235.90200        17.294500        19.877400
       239.71700        17.562700        20.071000
       243.59500        17.837200        20.266200
       247.53500        18.118800        20.462900
       251.53800        18.408600        20.661800
       255.60700        18.708900        20.863000
       259.74100        19.022300        21.066300
       263.94200        19.352100        21.271300
       268.21100        19.703100        21.478000
       272.54900        20.089800        21.686900
       276.95700        20.551700        21.841800
       281.43700        20.990200        21.926800
       285.98900        21.389000        21.966600
       290.61500        21.758100        22.000200
       295.31500        22.105000        22.033800
       300.09200        22.439300        22.067700
       304.94500        22.763900        22.101700
       309.87800        23.080600        22.135500
       314.89000        23.390500        22.169400
       319.98300        23.694800        22.203200
       325.15800        23.993700        22.236900
       330.41800        24.288000        22.271100
       335.76200        24.578200        22.305300
       341.19200        24.864200        22.339200
       346.71100        25.145700        22.373300
       352.31900        25.422700        22.407600
       358.01700        25.695500        22.442400
       363.80800        25.963000        22.476900
       369.69200        26.224200        22.511200
       375.67200        26.475900        22.545100
       381.74800        26.714500        22.580200
       387.92200        26.933200        22.618800
       394.19700        27.092300        22.664600
       400.57300        27.240900        22.830600
       407.05200        27.465500        23.046300
       413.63500        27.741100        23.265400
       420.32600        28.055200        23.485200
       427.12400        28.404500        23.706900
       434.03200        28.793300        23.931500
       441.05200        29.228100        24.158100
       448.18600        29.797700        24.360400
       455.43500        30.377300        24.430900
       462.80200        30.934100        24.407000
       470.28700        31.428500        24.332600
       477.89400        31.869000        24.259200
       485.62300        32.286400        24.185600
       493.47800        32.686700        24.111800
       501.45900        33.073000        24.037500
       509.57000        33.449200        23.963900
       517.81200        33.824300        23.886100
       526.18700        34.190300        23.791700
       534.69800        34.527500        23.665000
       543.34600        34.792100        23.522900
       552.13400        34.890100        23.382600
       561.06500        34.946700        23.702400
       570.13900        35.510200        24.183900
       579.36100        36.227000        24.195500
       588.73200        36.894500        24.065900
       598.25400        37.433500        23.847500
       607.93000        37.903400        23.631100
       617.76300        38.336300        23.416500
       627.75500        38.748900        23.202700
       637.90800        39.145600        22.978100
       648.22600        39.522200        22.736800
       658.71100        39.863700        22.485800
       669.36500        40.169500        22.237400
       680.19100        40.445900        22.025700
       691.19300        40.732500        21.841700
       702.37200        41.055300        21.661400
       713.73300        41.388300        21.438600
       725.27700        41.687400        21.188000
       737.00800        41.962600        20.940200
       748.92800        42.222800        20.695100
       761.04200        42.472100        20.452700
       773.35100        42.714100        20.210400
       785.85900        42.947600        19.962900
       798.57000        43.165300        19.711900
       811.48600        43.370000        19.463700
       824.61100        43.564300        19.218500
       837.94900        43.751300        18.976500
       851.50200        43.931100        18.733000
       865.27400        44.102700        18.487800
       879.26900        44.261900        18.241600
       893.49100        44.411100        17.998500
       907.94300        44.552900        17.758600
       922.62800        44.694100        17.521900
       937.55100        44.825700        17.269500
       952.71500        44.943600        17.015800
       968.12400        45.044900        16.761500
       983.78300        45.133500        16.510900
       999.69500        45.211900        16.262700
       1015.8600        45.283000        16.017000
       1032.2900        45.341400        15.763300
       1048.9900        45.385200        15.510000
       1065.9600        45.411400        15.256800
       1083.2000        45.421800        15.007600
       1100.7200        45.417400        14.762300
       1118.5200        45.398600        14.520900
       1136.6100        45.365500        14.283300
       1155.0000        45.317900        14.049400
       1173.6800        45.255500        13.819300
       1192.6600        45.177900        13.592400
       1211.9500        45.084500        13.369300
       1231.5500        44.976700        13.149900
       1251.4700        44.852900        12.928200
       1271.7200        44.709500        12.704300
       1292.2900        44.537500        12.476900
       1313.1900        44.336100        12.253200
       1334.4300        44.104900        12.033400
       1356.0100        43.841800        11.817600
       1377.9400        43.543600        11.605300
       1400.2300        43.206100        11.396800
       1422.8800        42.824600        11.192100
       1445.8900        42.392200        10.990400
       1469.2800        41.900400        10.791800
       1493.0400        41.338900        10.596100
       1517.1900        40.690200        10.399800
       1541.7300        39.933000        10.206500
       1566.6700        39.038800        10.016800
       1592.0100        37.965300        9.8304800
       1617.7600        36.645100        9.6475200
       1643.9200        34.962300        9.4678300
       1670.5100        32.690500        9.2915400
       1697.5300        29.269700        9.1183000
       1724.9900        22.096800        8.9478200
       1735.0000        4.2435900        8.8871000
       1735.2000        4.1516500        19.727500
       1752.8900        19.001600        23.004100
       1781.2400        20.140600        29.335300
       1810.0500        26.401000        37.409100
       1839.3200        33.820000        38.246400
       1869.0700        38.070600        37.368400
       1899.3000        41.041000        36.510500
       1930.0200        43.337400        35.671400
       1961.2400        45.188500        34.851500
       1992.9600        46.705300        34.050300
       2025.2000        47.957800        33.275000
       2057.9500        48.973600        32.509900
       2091.2400        49.746000        31.762300
       2125.0600        50.218100        31.031300
       2159.4300        50.145400        30.317800
       2193.9000        41.884100        29.629800
       2194.1000        41.891400        34.592700
       2194.3600        43.931100        34.586200
       2229.8500        52.093100        33.728600
       2265.9200        53.921900        32.892600
       2302.5700        55.184400        32.076700
       2339.8100        56.150800        31.281700
       2377.6600        56.892100        30.507200
       2416.1100        57.386200        29.751100
       2455.1900        57.283000        29.014200
       2468.6000        54.477400        28.768200
       2468.8000        54.481000        30.712800
       2494.9000        58.358500        30.225200
       2535.2600        59.505400        29.496200
       2576.2600        60.286300        28.784200
       2617.9300        60.878400        28.089700
       2660.2700        61.283700        27.413300
       2703.3000        60.985600        26.752600
       2707.9000        59.812900        26.683500
       2708.1000        59.822100        27.756000
       2747.0300        62.226100        27.231300
       2791.4600        62.947600        26.653200
       2836.6100        63.531400        26.083600
       2882.4900        64.043400        25.521400
       2929.1100        64.504500        24.968000
       2976.4800        64.926000        24.423700
       3024.6300        65.313100        23.887200
       3073.5500        65.670500        23.360500
       3123.2600        66.001400        22.842200
       3173.7800        66.308000        22.333000
       3225.1100        66.592200        21.832700
       3277.2700        66.855900        21.341600
       3330.2800        67.100300        20.859200
       3384.1500        67.327200        20.386700
       3438.8800        67.537600        19.922400
       3494.5000        67.732200        19.467300
       3551.0200        67.912600        19.021300
       3608.4600        68.079300        18.583600
       3666.8200        68.232700        18.154700
       3726.1300        68.374300        17.734800
       3786.4000        68.503900        17.322700
       3847.6400        68.622600        16.920000
       3909.8700        68.731400        16.525300
       3973.1100        68.830400        16.138800
       4037.3800        68.920200        15.760400
       4102.6800        69.001200        15.390100
       4169.0300        69.073900        15.027600
       4236.4600        69.138700        14.672900
       4304.9800        69.196100        14.325800
       4374.6200        69.246300        13.986200
