;  Atomic scattering factors for Tb.
;   
;  Concatenation of data from CXRO <http://www-cxro.lbl.gov>
;  and LLNL <http://www-phys.llnl.gov/V_Div/scattering/asf.html>
;  
;  E (eV) f1 f2
;---------------
       10.000000       -9999.0000       0.15974200
       10.161700       -9999.0000       0.16624500
       10.326100       -9999.0000       0.17301200
       10.493100       -9999.0000       0.18005500
       10.662800       -9999.0000       0.18738500
       10.835300       -9999.0000       0.19501300
       11.010600       -9999.0000       0.20295200
       11.188600       -9999.0000       0.21121400
       11.369600       -9999.0000       0.21981200
       11.553500       -9999.0000       0.22822600
       11.740400       -9999.0000       0.23675100
       11.930300       -9999.0000       0.24559400
       12.123200       -9999.0000       0.25476800
       12.319300       -9999.0000       0.26428500
       12.518600       -9999.0000       0.27391000
       12.721000       -9999.0000       0.28371200
       12.926800       -9999.0000       0.29386400
       13.135900       -9999.0000       0.30437900
       13.348300       -9999.0000       0.31527000
       13.564200       -9999.0000       0.32655200
       13.783600       -9999.0000       0.33773700
       14.006600       -9999.0000       0.34827600
       14.233100       -9999.0000       0.35914400
       14.463300       -9999.0000       0.37035200
       14.697300       -9999.0000       0.38190900
       14.935000       -9999.0000       0.39382600
       15.176500       -9999.0000       0.40571900
       15.422000       -9999.0000       0.41745100
       15.671400       -9999.0000       0.42952100
       15.924900       -9999.0000       0.44194100
       16.182500       -9999.0000       0.45472000
       16.444200       -9999.0000       0.46786800
       16.710200       -9999.0000       0.48174500
       16.980500       -9999.0000       0.49635900
       17.255100       -9999.0000       0.51141600
       17.534200       -9999.0000       0.52693000
       17.817800       -9999.0000       0.54291500
       18.106000       -9999.0000       0.55938400
       18.398900       -9999.0000       0.57635400
       18.696400       -9999.0000       0.59314800
       18.998800       -9999.0000       0.60868700
       19.306100       -9999.0000       0.62463400
       19.618400       -9999.0000       0.64099900
       19.935700       -9999.0000       0.65779200
       20.258200       -9999.0000       0.67502500
       20.585800       -9999.0000       0.69271000
       20.918800       -9999.0000       0.72404300
       21.257100       -9999.0000       0.77667000
       21.600900       -9999.0000       0.83312200
       21.950300       -9999.0000       0.89367800
       22.305300       -9999.0000       0.97949200
       22.666100       -9999.0000        1.1039100
       23.032700       -9999.0000        1.2441200
       23.405300       -9999.0000        1.4070500
       23.783800       -9999.0000        1.5949700
       24.168500       -9999.0000        1.8146900
       24.559400       -9999.0000        2.0801000
       24.956600       -9999.0000        2.3909100
       25.360300       -9999.0000        2.7577000
       25.770500       -9999.0000        3.1942300
       26.187300       -9999.0000        3.6909800
       26.610900       -9999.0000        4.1072300
       27.041300       -9999.0000        4.5704300
       27.478600       -9999.0000        5.2424100
       27.923100       -9999.0000        6.0169400
       28.374700       -9999.0000        6.6016100
       28.833700       -9999.0000        7.2050700
       29.300000       0.65158200        7.8658500
       29.773900       0.94804100        8.6219500
       30.255500        1.5589300        9.2848800
       30.744900        2.0851000        9.6636800
       31.242100        2.5678900        10.057900
       31.747500        3.1307300        10.417500
       32.260900        3.6807900        10.673800
       32.782700        4.2839700        10.936400
       33.313000        4.9250400        10.958700
       33.851800        5.4217300        10.932600
       34.399300        5.8482900        10.906500
       34.955700        6.2418600        10.877600
       35.521100        6.6067000        10.844300
       36.095600        6.9525500        10.811100
       36.679400        7.2909200        10.778000
       37.272700        7.6448200        10.717700
       37.875500        7.9524200        10.615300
       38.488200        8.2269200        10.513900
       39.110700        8.4800300        10.412300
       39.743200        8.7106200        10.304600
       40.386100        8.9190400        10.198100
       41.039300        9.1049700        10.092600
       41.703100        9.2630300        10.001600
       42.377600        9.4221600        9.9237900
       43.063000        9.5753600        9.8466200
       43.759500        9.7164100        9.7700700
       44.467300        9.8388100        9.7046600
       45.186500        9.9648800        9.6500800
       45.917400        10.087700        9.5958000
       46.660000        10.198000        9.5418300
       47.414700        10.294300        9.5150300
       48.181600        10.410300        9.5009000
       48.960900        10.539500        9.4868100
       49.752800        10.685300        9.4706700
       50.557600        10.828100        9.4185200
       51.375300        10.956000        9.3666500
       52.206200        11.074800        9.3150500
       53.050600        11.187900        9.2637500
       53.908700        11.296000        9.2127300
       54.780600        11.399700        9.1619900
       55.666700        11.499200        9.1115400
       56.567000        11.595300        9.0613600
       57.482000        11.688800        9.0114600
       58.411700        11.783000        8.9572100
       59.356400        11.866900        8.8974800
       60.316500        11.943100        8.8381400
       61.292100        12.012500        8.7792000
       62.283400        12.075300        8.7206600
       63.290800        12.131100        8.6625100
       64.314500        12.179400        8.6047300
       65.354700        12.219000        8.5473600
       66.411800        12.246600        8.4903600
       67.485900        12.251400        8.4338800
       68.577500        12.248700        8.4201300
       69.686700        12.262600        8.4133700
       70.813800        12.282200        8.4066200
       71.959100        12.303200        8.3998600
       73.123000        12.323700        8.3931200
       74.305700        12.342300        8.3863900
       75.507600        12.356400        8.3796600
       76.728900        12.360800        8.3794500
       77.969900        12.369600        8.3867900
       79.231000        12.379600        8.3941300
       80.512500        12.387100        8.4014800
       81.814700        12.390700        8.4088400
       83.138000        12.386500        8.4162000
       84.482700        12.362600        8.4242500
       85.849100        12.341400        8.4726400
       87.237700        12.334400        8.5213000
       88.648700        12.332900        8.5702500
       90.082500        12.334000        8.6194700
       91.539500        12.335900        8.6689900
       93.020100        12.336300        8.7187800
       94.524600        12.328500        8.7688500
       96.053500        12.326300        8.8482700
       97.607100        12.340200        8.9285000
       99.185800        12.369800        9.0094700
       100.79000        12.423700        9.0911700
       102.42000        12.544600        9.1228700
       104.07700        12.606100        9.0869800
       105.76000        12.626200        9.0512200
       107.47100        12.631000        9.0156000
       109.20900        12.641900        8.9698300
       110.97500        12.614600        8.8817700
       112.77000        12.545500        8.7945800
       114.59400        12.445600        8.7082500
       116.44800        12.317500        8.6227700
       118.33100        12.164300        8.5381200
       120.24500        11.996900        8.4543000
       122.19000        11.874500        8.3116300
       124.16600        11.595200        8.0232800
       126.17500        11.170900        7.7449300
       128.21500        10.614400        7.4762300
       130.28900        9.9288000        7.2168600
       132.39700        9.0844800        6.8960100
       134.53800        7.9767800        6.5513700
       136.71400        6.4689200        5.9445500
       138.92500        4.0616800        5.4533400
       141.17200       0.38811400        5.1089700
       143.45600       -6.2903900        5.1925300
       145.77600       -16.689400        12.883600
       148.13400       -20.614600        33.585700
       150.53000     0.0014439800        46.579000
       152.96400        14.193000        42.567000
       155.43900        21.531800        36.323800
       157.95300        23.613200        29.909400
       160.50700        22.755000        25.958200
       163.10300        22.099300        24.542200
       165.74200        22.184500        23.674100
       168.42200        22.393100        22.836700
       171.14600        22.660400        22.181300
       173.91500        22.956300        21.551500
       176.72700        23.230700        20.939700
       179.58600        23.406600        20.390500
       182.49100        23.618400        19.950700
       185.44200        23.834600        19.520400
       188.44200        24.028800        19.099300
       191.48900        24.172000        18.687300
       194.58700        24.296600        18.367700
       197.73400        24.431200        18.062600
       200.93200        24.555900        17.762500
       204.18200        24.652300        17.495300
       207.48500        24.762600        17.260600
       210.84000        24.873600        17.029000
       214.25100        24.979400        16.799600
       217.71600        25.063200        16.562800
       221.23700        25.111200        16.329400
       224.81600        25.085600        16.099300
       228.45200        25.002100        16.034600
       232.14700        25.011900        16.048500
       235.90200        25.102400        16.062400
       239.71700        25.250400        16.076400
       243.59500        25.436300        16.011000
       247.53500        25.590200        15.913500
       251.53800        25.714700        15.816700
       255.60700        25.824400        15.724500
       259.74100        25.925500        15.637500
       263.94200        26.013400        15.551000
       268.21100        26.069400        15.464900
       272.54900        26.076600        15.434700
       276.95700        26.137700        15.475000
       281.43700        26.235200        15.515400
       285.98900        26.355000        15.555900
       290.61500        26.493800        15.596500
       295.31500        26.661000        15.637300
       300.09200        26.853000        15.644700
       304.94500        27.026100        15.624600
       309.87800        27.188500        15.604600
       314.89000        27.345800        15.584600
       319.98300        27.499400        15.564700
       325.15800        27.648400        15.544700
       330.41800        27.786800        15.524800
       335.76200        27.923900        15.530500
       341.19200        28.073600        15.542100
       346.71100        28.234400        15.553700
       352.31900        28.402800        15.565300
       358.01700        28.581500        15.576900
       363.80800        28.777300        15.578700
       369.69200        28.964900        15.561000
       375.67200        29.147200        15.543400
       381.74800        29.328700        15.525700
       387.92200        29.511300        15.508100
       394.19700        29.697600        15.490600
       400.57300        29.897300        15.468200
       407.05200        30.087800        15.423100
       413.63500        30.269100        15.378200
       420.32600        30.445300        15.333400
       427.12400        30.618000        15.288700
       434.03200        30.788000        15.244200
       441.05200        30.955700        15.199800
       448.18600        31.119300        15.155500
       455.43500        31.282400        15.116800
       462.80200        31.448100        15.079100
       470.28700        31.615500        15.041500
       477.89400        31.785100        15.004000
       485.62300        31.957600        14.966500
       493.47800        32.142800        14.929200
       501.45900        32.327000        14.870100
       509.57000        32.502200        14.809000
       517.81200        32.674400        14.748200
       526.18700        32.852500        14.687600
       534.69800        33.027800        14.612000
       543.34600        33.194700        14.534600
       552.13400        33.358000        14.457600
       561.06500        33.520200        14.381000
       570.13900        33.683900        14.304800
       579.36100        33.853700        14.229100
       588.73200        34.049200        14.153700
       598.25400        34.237700        14.011400
       607.93000        34.396100        13.861100
       617.76300        34.529700        13.712400
       627.75500        34.649000        13.565300
       637.90800        34.756300        13.419800
       648.22600        34.853000        13.275900
       658.71100        34.940100        13.133500
       669.36500        35.018100        12.992600
       680.19100        35.090200        12.852500
       691.19300        35.152000        12.709900
       702.37200        35.203000        12.568900
       713.73300        35.244600        12.429500
       725.27700        35.277400        12.291600
       737.00800        35.301500        12.155200
       748.92800        35.317500        12.020300
       761.04200        35.328300        11.887000
       773.35100        35.329400        11.744700
       785.85900        35.315300        11.601100
       798.57000        35.286200        11.459300
       811.48600        35.243700        11.319100
       824.61100        35.187800        11.180800
       837.94900        35.118700        11.044000
       851.50200        35.035600        10.907000
       865.27400        34.936600        10.769500
       879.26900        34.818400        10.631700
       893.49100        34.680600        10.495700
       907.94300        34.522400        10.361300
       922.62800        34.344200        10.228700
       937.55100        34.140600        10.091200
       952.71500        33.907200        9.9538600
       968.12400        33.639500        9.8168500
       983.78300        33.335200        9.6820300
       999.69500        32.990400        9.5479300
       1015.8600        32.600200        9.4144700
       1032.2900        32.150800        9.2744000
       1048.9900        31.631100        9.1363100
       1065.9600        31.028300        9.0002600
       1083.2000        30.324900        8.8661500
       1100.7200        29.495300        8.7339600
       1118.5200        28.502000        8.6036500
       1136.6100        27.288700        8.4756000
       1155.0000        25.763000        8.3493700
       1173.6800        23.759800        8.2249200
       1192.6600        20.940200        8.1024900
       1211.9500        16.411900        7.9818600
       1231.5500        5.8609100        7.8629900
       1241.0000       -39.615400        7.8070100
       1241.2000       -39.588000        39.586400
       1251.4700        7.8870000        39.118600
       1271.7200        19.528800        38.224000
       1292.2900        25.215800        37.349800
       1313.1900        29.041400        36.495700
       1334.4300        31.920600        35.661000
       1356.0100        34.214000        34.845400
       1377.9400        36.101300        34.048400
       1400.2300        37.685000        33.269600
       1422.8800        39.027800        32.508800
       1445.8900        40.169600        31.765500
       1469.2800        41.134200        31.039000
       1493.0400        41.932500        30.328900
       1517.1900        42.561100        29.635200
       1541.7300        42.993100        28.957500
       1566.6700        43.145300        28.295500
       1592.0100        42.569300        27.648300
       1611.2000        35.924900        27.174600
       1611.4000        35.946500        31.779300
       1617.7600        41.775600        31.608500
       1643.9200        44.698600        30.922000
       1670.5100        46.060300        30.250400
       1697.5300        46.995100        29.593600
       1724.9900        47.633300        28.951400
       1752.8900        47.706700        28.323100
       1767.6000        45.308100        28.001200
       1767.8000        45.327700        30.015100
       1781.2400        48.504100        29.700700
       1810.0500        49.881100        29.045400
       1839.3200        50.785500        28.404700
       1869.0700        51.498100        27.778200
       1899.3000        52.071200        27.166000
       1930.0200        52.489000        26.566700
       1961.2400        52.435200        25.980600
       1967.4000        51.113500        25.867600
       1967.6000        51.116700        26.945600
       1992.9600        53.430700        26.500000
       2025.2000        54.198200        25.952200
       2057.9500        54.806500        25.402300
       2091.2400        55.333400        24.860900
       2125.0600        55.805100        24.328700
       2159.4300        56.234700        23.805500
       2194.3600        56.628900        23.291000
       2229.8500        56.992700        22.785500
       2265.9200        57.329300        22.288900
       2302.5700        57.641700        21.801200
       2339.8100        57.931700        21.322200
       2377.6600        58.201500        20.851900
       2416.1100        58.451800        20.390000
       2455.1900        58.684600        19.937500
       2494.9000        58.901300        19.493300
       2535.2600        59.102800        19.057600
       2576.2600        59.289500        18.630200
       2617.9300        59.462900        18.211600
       2660.2700        59.623700        17.800900
       2703.3000        59.772200        17.398400
       2747.0300        59.909900        17.004700
       2791.4600        60.037000        16.618100
       2836.6100        60.153500        16.239800
       2882.4900        60.260700        15.869400
       2929.1100        60.358900        15.506400
       2976.4800        60.448700        15.151100
       3024.6300        60.529700        14.802700
       3073.5500        60.603300        14.462600
       3123.2600        60.669800        14.128900
       3173.7800        60.728900        13.802100
       3225.1100        60.780800        13.483000
       3277.2700        60.827200        13.171100
       3330.2800        60.867200        12.864700
       3384.1500        60.901100        12.565800
       3438.8800        60.929900        12.273300
       3494.5000        60.953200        11.987000
       3551.0200        60.971300        11.707100
       3608.4600        60.984600        11.433200
       3666.8200        60.993000        11.165400
       3726.1300        60.997000        10.903600
       3786.4000        60.996600        10.647600
       3847.6400        60.991900        10.397300
       3909.8700        60.983100        10.152500
       3973.1100        60.970400        9.9132900
       4037.3800        60.953700        9.6792700
       4102.6800        60.933300        9.4506700
       4169.0300        60.909100        9.2270900
       4236.4600        60.881200        9.0087000
       4304.9800        60.849800        8.7950600
       4374.6200        60.814700        8.5863500
