;  Atomic scattering factors for Tc.
;   
;  Concatenation of data from CXRO <http://www-cxro.lbl.gov>
;  and LLNL <http://www-phys.llnl.gov/V_Div/scattering/asf.html>
;  
;  E (eV) f1 f2
;---------------
       10.000000       -9999.0000        1.1689000
       10.161700       -9999.0000        1.2263000
       10.326100       -9999.0000        1.2865100
       10.493100       -9999.0000        1.3496800
       10.662800       -9999.0000        1.4159500
       10.835300       -9999.0000        1.4854700
       11.010600       -9999.0000        1.5584100
       11.188600       -9999.0000        1.6349300
       11.369600       -9999.0000        1.7152000
       11.553500       -9999.0000        1.7906000
       11.740400       -9999.0000        1.8582100
       11.930300       -9999.0000        1.9283700
       12.123200       -9999.0000        2.0011900
       12.319300       -9999.0000        2.0767500
       12.518600       -9999.0000        2.1564300
       12.721000       -9999.0000        2.2408300
       12.926800       -9999.0000        2.3285400
       13.135900       -9999.0000        2.4196700
       13.348300       -9999.0000        2.5107200
       13.564200       -9999.0000        2.5971500
       13.783600       -9999.0000        2.6865600
       14.006600       -9999.0000        2.7790400
       14.233100       -9999.0000        2.8747100
       14.463300       -9999.0000        2.9707300
       14.697300       -9999.0000        3.0668000
       14.935000       -9999.0000        3.1659800
       15.176500       -9999.0000        3.2683600
       15.422000       -9999.0000        3.3740600
       15.671400       -9999.0000        3.4688600
       15.924900       -9999.0000        3.5480500
       16.182500       -9999.0000        3.6290400
       16.444200       -9999.0000        3.7118800
       16.710200       -9999.0000        3.7966100
       16.980500       -9999.0000        3.8829200
       17.255100       -9999.0000        3.9690800
       17.534200       -9999.0000        4.0571500
       17.817800       -9999.0000        4.1471800
       18.106000       -9999.0000        4.2392000
       18.398900       -9999.0000        4.3332600
       18.696400       -9999.0000        4.4294200
       18.998800       -9999.0000        4.5277000
       19.306100       -9999.0000        4.5817400
       19.618400       -9999.0000        4.6362300
       19.935700       -9999.0000        4.6914900
       20.258200       -9999.0000        4.7486200
       20.585800       -9999.0000        4.8064600
       20.918800       -9999.0000        4.8649900
       21.257100       -9999.0000        4.9242400
       21.600900       -9999.0000        4.9842100
       21.950300       -9999.0000        5.0449100
       22.305300       -9999.0000        5.1063500
       22.666100       -9999.0000        5.1650400
       23.032700       -9999.0000        5.1924300
       23.405300       -9999.0000        5.2199600
       23.783800       -9999.0000        5.2476500
       24.168500       -9999.0000        5.2754800
       24.559400       -9999.0000        5.3034500
       24.956600       -9999.0000        5.3097400
       25.360300       -9999.0000        5.2995000
       25.770500       -9999.0000        5.2892900
       26.187300       -9999.0000        5.2790900
       26.610900       -9999.0000        5.2689200
       27.041300       -9999.0000        5.2587600
       27.478600       -9999.0000        5.2265200
       27.923100       -9999.0000        5.1654000
       28.374700       -9999.0000        5.1050000
       28.833700       -9999.0000        5.0453100
       29.300000        7.3716600        4.9863100
       29.773900        7.4350900        4.9252500
       30.255500        7.4826700        4.8134500
       30.744900        7.4954700        4.7041900
       31.242100        7.4857800        4.5974100
       31.747500        7.4620600        4.4896800
       32.260900        7.4124300        4.3685900
       32.782700        7.3352000        4.2507700
       33.313000        7.2372300        4.1285900
       33.851800        7.0878400        3.9900000
       34.399300        6.8703400        3.8632200
       34.955700        6.6107600        3.7890400
       35.521100        6.2912000        3.7328800
       36.095600        5.9406700        3.7542200
       36.679400        5.5189900        3.8312800
       37.272700        5.0953300        3.9777300
       37.875500        4.5834100        4.2674200
       38.488200        4.1875600        4.6846900
       39.110700        3.8500000        5.1427500
       39.743200        3.5290400        5.6456000
       40.386100        3.1842100        6.2273900
       41.039300        2.9213000        6.9938500
       41.703100        2.7825000        7.8546300
       42.377600        2.8140600        8.8213600
       43.063000        3.1593100        9.8086300
       43.759500        3.5731300        10.586000
       44.467300        4.1185800        11.336100
       45.186500        4.6713600        12.000400
       45.917400        5.3561900        12.703700
       46.660000        6.1031100        13.143100
       47.414700        6.8411500        13.596600
       48.181600        7.7205900        13.969800
       48.960900        8.5381700        14.183600
       49.752800        9.3647300        14.400700
       50.557600        10.317900        14.621100
       51.375300        11.357900        14.491100
       52.206200        12.199600        14.255200
       53.050600        12.972500        14.023100
       53.908700        13.758700        13.794800
       54.780600        14.720000        13.401200
       55.666700        15.382000        12.658500
       56.567000        15.769900        11.981200
       57.482000        16.079000        11.481700
       58.411700        16.373000        11.003100
       59.356400        16.647300        10.544300
       60.316500        16.886200        10.080900
       61.292100        17.086900        9.6378500
       62.283400        17.259900        9.2143100
       63.290800        17.412100        8.8093900
       64.314500        17.550500        8.4222400
       65.354700        17.687100        8.0521200
       66.411800        17.856600        7.6588700
       67.485900        17.954800        7.2156900
       68.577500        18.008000        6.7981700
       69.686700        18.040700        6.4048000
       70.813800        18.088000        5.9962800
       71.959100        18.054400        5.5611100
       73.123000        17.962300        5.1575400
       74.305700        17.823600        4.8222200
       75.507600        17.700200        4.5319900
       76.728900        17.580800        4.2592200
       77.969900        17.451800        4.0028700
       79.231000        17.298300        3.7856200
       80.512500        17.177600        3.6067500
       81.814700        17.082900        3.4363400
       83.138000        17.023500        3.2644400
       84.482700        16.941800        3.0296300
       85.849100        16.826400        2.8117100
       87.237700        16.688200        2.6161200
       88.648700        16.548200        2.4399800
       90.082500        16.406700        2.2756900
       91.539500        16.264600        2.1224700
       93.020100        16.116500        1.9682100
       94.524600        15.957100        1.8245600
       96.053500        15.784100        1.6914000
       97.607100        15.604500        1.5859200
       99.185800        15.431500        1.4924900
       100.79000        15.254900        1.4045600
       102.42000        15.054600        1.3315400
       104.07700        14.870700        1.3010300
       105.76000        14.698200        1.2752200
       107.47100        14.537600        1.2604600
       109.20900        14.380100        1.2458700
       110.97500        14.224900        1.2481900
       112.77000        14.079900        1.2553500
       114.59400        13.935900        1.2706500
       116.44800        13.804400        1.2947600
       118.33100        13.680000        1.3193300
       120.24500        13.556300        1.3451200
       122.19000        13.438700        1.3807700
       124.16600        13.328000        1.4173800
       126.17500        13.221300        1.4549500
       128.21500        13.114900        1.4935200
       130.28900        13.012100        1.5415300
       132.39700        12.916500        1.5919400
       134.53800        12.826300        1.6440000
       136.71400        12.741500        1.6977600
       138.92500        12.664800        1.7532800
       141.17200        12.592900        1.7987900
       143.45600        12.518400        1.8430400
       145.77600        12.443100        1.8883800
       148.13400        12.368300        1.9342600
       150.53000        12.293900        1.9809500
       152.96400        12.220400        2.0287700
       155.43900        12.148100        2.0777400
       157.95300        12.078100        2.1279000
       160.50700        12.015100        2.1792600
       163.10300        11.953700        2.2175000
       165.74200        11.885300        2.2529700
       168.42200        11.813600        2.2890100
       171.14600        11.741100        2.3256200
       173.91500        11.674300        2.3579900
       176.72700        11.596700        2.3766400
       179.58600        11.509100        2.3954400
       182.49100        11.413500        2.4143900
       185.44200        11.310300        2.4335800
       188.44200        11.199900        2.4530300
       191.48900        11.081700        2.4726400
       194.58700        10.955700        2.4923900
       197.73400        10.822300        2.5123200
       200.93200        10.678100        2.5268100
       204.18200        10.520100        2.5411700
       207.48500        10.347300        2.5556200
       210.84000        10.158400        2.5701500
       214.25100        9.9507300        2.5856600
       217.71600        9.7231700        2.6023800
       221.23700        9.4714900        2.6192100
       224.81600        9.1873600        2.6363700
       228.45200        8.8638800        2.6652400
       232.14700        8.5059900        2.7093700
       235.90200        8.0641900        2.7655700
       239.71700        7.6092900        2.9194600
       243.59500        7.1467000        3.0819300
       247.53500        6.6198000        3.2534300
       251.53800        6.0543600        3.5388300
       255.60700        5.4705000        3.8333500
       259.74100        4.7023800        4.1908000
       263.94200        3.8704800        4.7398500
       268.21100        3.0863800        5.6278500
       272.54900        2.4217500        6.6822300
       276.95700        1.9252600        7.9268400
       281.43700        1.7407300        9.3796800
       285.98900        1.7866500        10.624700
       290.61500        2.1091300        11.958700
       295.31500        2.4626300        12.930000
       300.09200        2.8664600        13.980200
       304.94500        3.3710800        14.900000
       309.87800        3.8709100        15.782900
       314.89000        4.5444100        16.653700
       319.98300        5.1913600        17.354500
       325.15800        5.9555100        18.016700
       330.41800        6.6352300        18.493000
       335.76200        7.2458700        18.977200
       341.19200        7.8439700        19.448900
       346.71100        8.4477400        19.932400
       352.31900        9.0947200        20.428000
       358.01700        9.9005500        20.836500
       363.80800        10.617400        21.075100
       369.69200        11.240700        21.316300
       375.67200        11.840600        21.560400
       381.74800        12.429300        21.814500
       387.92200        13.024000        22.075400
       394.19700        13.634700        22.339400
       400.57300        14.271500        22.606500
       407.05200        15.027200        22.876800
       413.63500        15.784700        22.937000
       420.32600        16.439800        22.956200
       427.12400        17.041400        22.975500
       434.03200        17.588500        22.994800
       441.05200        18.068400        23.087400
       448.18600        18.688600        23.302300
       455.43500        19.503700        23.385100
       462.80200        20.179500        23.250400
       470.28700        20.770700        23.133700
       477.89400        21.326200        23.017600
       485.62300        21.851400        22.902200
       493.47800        22.352200        22.787300
       501.45900        22.829500        22.672600
       509.57000        23.279800        22.559000
       517.81200        23.677800        22.463100
       526.18700        24.050900        22.427200
       534.69800        24.451400        22.504700
       543.34600        24.981500        22.639100
       552.13400        25.694700        22.774000
       561.06500        26.518000        22.603700
       570.13900        27.220400        22.288000
       579.36100        27.780900        21.953500
       588.73200        28.282900        21.628400
       598.25400        28.746600        21.310800
       607.93000        29.180800        20.997500
       617.76300        29.591700        20.688900
       627.75500        29.988100        20.383700
       637.90800        30.371400        20.070100
       648.22600        30.734400        19.740700
       658.71100        31.058800        19.403300
       669.36500        31.342700        19.071300
       680.19100        31.592300        18.784000
       691.19300        31.851200        18.530800
       702.37200        32.144400        18.286200
       713.73300        32.446300        18.008000
       725.27700        32.718500        17.709100
       737.00800        32.970200        17.416100
       748.92800        33.208900        17.127700
       761.04200        33.437800        16.843900
       773.35100        33.660200        16.562600
       785.85900        33.874900        16.278700
       798.57000        34.075100        15.993700
       811.48600        34.263700        15.713700
       824.61100        34.443300        15.438700
       837.94900        34.616000        15.168400
       851.50200        34.782400        14.900200
       865.27400        34.942200        14.633600
       879.26900        35.092900        14.369100
       893.49100        35.236400        14.109400
       907.94300        35.374700        13.854300
       922.62800        35.512800        13.603800
       937.55100        35.644500        13.344600
       952.71500        35.767000        13.087000
       968.12400        35.878900        12.831400
       983.78300        35.983000        12.580900
       999.69500        36.081600        12.334500
       1015.8600        36.176800        12.091900
       1032.2900        36.265200        11.846400
       1048.9900        36.346000        11.603400
       1065.9600        36.417300        11.362800
       1083.2000        36.480900        11.127200
       1100.7200        36.538000        10.896500
       1118.5200        36.589300        10.670500
       1136.6100        36.635000        10.449100
       1155.0000        36.675600        10.232300
       1173.6800        36.711500        10.020100
       1192.6600        36.742900        9.8122900
       1211.9500        36.769900        9.6087600
       1231.5500        36.792700        9.4094900
       1251.4700        36.811600        9.2145800
       1271.7200        36.826700        9.0239800
       1292.2900        36.838600        8.8376400
       1313.1900        36.847200        8.6549800
       1334.4300        36.852600        8.4761300
       1356.0100        36.854900        8.3010300
       1377.9400        36.854200        8.1294800
       1400.2300        36.850500        7.9615200
       1422.8800        36.844400        7.7971500
       1445.8900        36.836100        7.6361300
       1469.2800        36.826400        7.4774400
       1493.0400        36.815500        7.3205600
       1517.1900        36.799800        7.1608500
       1541.7300        36.778000        7.0037900
       1566.6700        36.750500        6.8501600
       1592.0100        36.718700        6.7000900
       1617.7600        36.682700        6.5532800
       1643.9200        36.642700        6.4095900
       1670.5100        36.598300        6.2689300
       1697.5300        36.549800        6.1314500
       1724.9900        36.498400        5.9971400
       1752.8900        36.442500        5.8632800
       1781.2400        36.380700        5.7315100
       1810.0500        36.312900        5.6019700
       1839.3200        36.238700        5.4753900
       1869.0700        36.158200        5.3517800
       1899.3000        36.071500        5.2311800
       1930.0200        35.977900        5.1129000
       1961.2400        35.876500        4.9973700
       1992.9600        35.766600        4.8848100
       2025.2000        35.650100        4.7762400
       2057.9500        35.524100        4.6669500
       2091.2400        35.385800        4.5597900
       2125.0600        35.234600        4.4547800
       2159.4300        35.068800        4.3519200
       2194.3600        34.886400        4.2511500
       2229.8500        34.684400        4.1524100
       2265.9200        34.459500        4.0556800
       2302.5700        34.207200        3.9609600
       2339.8100        33.921200        3.8681100
       2377.6600        33.593400        3.7772200
       2416.1100        33.211800        3.6881600
       2455.1900        32.758500        3.6009500
       2494.9000        32.205200        3.5155200
       2535.2600        31.502000        3.4318600
       2576.2600        30.548200        3.3499400
       2617.9300        29.079400        3.2696900
       2660.2700        25.728300        3.1911000
       2676.8000        12.831900        3.1612700
       2677.0000        12.833600        11.069300
       2703.3000        26.670800        10.909700
       2747.0300        28.448300        10.652700
       2791.4600        25.698100        10.401600
       2793.1000        22.175700        10.392500
       2793.3000        22.180300        14.307400
       2836.6100        30.605800        14.074900
       2882.4900        32.171100        13.836600
       2929.1100        33.195600        13.602900
       2976.4800        33.906100        13.372800
       3024.6300        34.167600        13.146800
       3042.4000        32.266100        13.065200
       3042.6000        32.270000        14.392200
       3073.5500        35.155500        14.187100
       3123.2600        36.176300        13.868000
       3173.7800        36.915800        13.553900
       3225.1100        37.526600        13.244200
       3277.2700        38.053100        12.939500
       3330.2800        38.517200        12.639700
       3384.1500        38.931000        12.344300
       3438.8800        39.303800        12.054700
       3494.5000        39.641800        11.769600
       3551.0200        39.949300        11.489500
       3608.4600        40.230300        11.214700
       3666.8200        40.487600        10.944800
       3726.1300        40.724100        10.680500
       3786.4000        40.942100        10.420800
       3847.6400        41.142100        10.165600
       3909.8700        41.326300        9.9161000
       3973.1100        41.496400        9.6715100
       4037.3800        41.653300        9.4319200
       4102.6800        41.798000        9.1971900
       4169.0300        41.931500        8.9673600
       4236.4600        42.054600        8.7424300
       4304.9800        42.168100        8.5222500
       4374.6200        42.272500        8.3067500
       4445.3700        42.368600        8.0959400
       4517.2700        42.456800        7.8898300
