;  Atomic scattering factors for Te.
;   
;  Concatenation of data from CXRO <http://www-cxro.lbl.gov>
;  and LLNL <http://www-phys.llnl.gov/V_Div/scattering/asf.html>
;  
;  E (eV) f1 f2
;---------------
       10.000000       -9999.0000        9.7023700
       10.161700       -9999.0000        9.7265300
       10.326100       -9999.0000        9.7507600
       10.493100       -9999.0000        9.7750600
       10.662800       -9999.0000        9.7994000
       10.835300       -9999.0000        9.7763800
       11.010600       -9999.0000        9.7230800
       11.188600       -9999.0000        9.6700800
       11.369600       -9999.0000        9.6173600
       11.553500       -9999.0000        9.5439500
       11.740400       -9999.0000        9.4608500
       11.930300       -9999.0000        9.3784800
       12.123200       -9999.0000        9.2915000
       12.319300       -9999.0000        9.1914000
       12.518600       -9999.0000        9.0923800
       12.721000       -9999.0000        8.9944300
       12.926800       -9999.0000        8.9049000
       13.135900       -9999.0000        8.8199800
       13.348300       -9999.0000        8.7358800
       13.564200       -9999.0000        8.6525600
       13.783600       -9999.0000        8.3212000
       14.006600       -9999.0000        7.9709600
       14.233100       -9999.0000        7.6586500
       14.463300       -9999.0000        7.3743900
       14.697300       -9999.0000        7.0733300
       14.935000       -9999.0000        6.7624800
       15.176500       -9999.0000        6.4652900
       15.422000       -9999.0000        6.2084700
       15.671400       -9999.0000        5.9646500
       15.924900       -9999.0000        5.7526800
       16.182500       -9999.0000        5.6116300
       16.444200       -9999.0000        5.4740400
       16.710200       -9999.0000        5.3398200
       16.980500       -9999.0000        5.1929800
       17.255100       -9999.0000        5.0135600
       17.534200       -9999.0000        4.8403400
       17.817800       -9999.0000        4.6731000
       18.106000       -9999.0000        4.5134700
       18.398900       -9999.0000        4.3610100
       18.696400       -9999.0000        4.2137100
       18.998800       -9999.0000        4.0713900
       19.306100       -9999.0000        3.9324300
       19.618400       -9999.0000        3.7903000
       19.935700       -9999.0000        3.6533100
       20.258200       -9999.0000        3.4444400
       20.585800       -9999.0000        3.2181600
       20.918800       -9999.0000        3.0249300
       21.257100       -9999.0000        2.8478700
       21.600900       -9999.0000        2.7165800
       21.950300       -9999.0000        2.5913400
       22.305300       -9999.0000        2.4580500
       22.666100       -9999.0000        2.3249200
       23.032700       -9999.0000        2.1451300
       23.405300       -9999.0000        1.9725200
       23.783800       -9999.0000        1.8853500
       24.168500       -9999.0000        1.8020300
       24.559400       -9999.0000        1.7131900
       24.956600       -9999.0000        1.6031500
       25.360300       -9999.0000        1.4956300
       25.770500       -9999.0000        1.3881500
       26.187300       -9999.0000        1.2973100
       26.610900       -9999.0000        1.2317400
       27.041300       -9999.0000        1.1694000
       27.478600       -9999.0000        1.1070100
       27.923100       -9999.0000        1.0479600
       28.374700       -9999.0000       0.97769700
       28.833700       -9999.0000       0.90184000
       29.300000        4.6654900       0.84463500
       29.773900        4.5143500       0.81987400
       30.255500        4.3744200       0.79583700
       30.744900        4.2390700       0.76936300
       31.242100        4.0992600       0.74046300
       31.747500        3.9560400       0.71146100
       32.260900        3.8038200       0.67934900
       32.782700        3.6367400       0.65156400
       33.313000        3.4669300       0.64236900
       33.851800        3.2976100       0.63330300
       34.399300        3.1230800       0.62436500
       34.955700        2.9421000       0.62016500
       35.521100        2.7549500       0.61636100
       36.095600        2.5576500       0.61257900
       36.679400        2.3475700       0.61220200
       37.272700        2.1255700       0.61316400
       37.875500        1.8865600       0.61412900
       38.488200        1.6243100       0.61526700
       39.110700        1.3313900       0.61759600
       39.743200       0.99360100       0.61993600
       40.386100       0.58305600       0.62714400
       41.039300      0.014333900       0.63993500
       41.703100      -0.92951400       0.81924500
       42.377600       -1.9293700        1.8245900
       43.063000      -0.62674100        3.5665800
       43.759500       0.12103100        3.2462000
       44.467300       0.20220800        2.8424400
       45.186500     -0.038484600        2.5239400
       45.917400      -0.43453400        2.2937900
       46.660000       -1.1665000        2.3039000
       47.414700       -1.7190500        2.6596400
       48.181600       -2.0713200        3.0413400
       48.960900       -2.4248800        3.3789800
       49.752800       -2.7706300        3.7483300
       50.557600       -3.1155800        4.1464700
       51.375300       -3.4617600        4.5869000
       52.206200       -3.7951900        5.1191500
       53.050600       -4.0043200        5.7344600
       53.908700       -4.1638800        6.1900700
       54.780600       -4.3705500        6.6791300
       55.666700       -4.5908200        7.2004400
       56.567000       -4.8209900        7.7561600
       57.482000       -5.0681800        8.3548000
       58.411700       -5.2978300        9.0751800
       59.356400       -5.4440300        9.8697700
       60.316500       -5.4493300        10.733900
       61.292100       -5.3541700        11.416500
       62.283400       -5.3399000        12.091600
       63.290800       -5.3727200        12.849900
       64.314500       -5.3409700        13.690100
       65.354700       -5.2307200        14.585100
       66.411800       -4.9819300        15.538700
       67.485900       -4.6344400        16.314600
       68.577500       -4.3361300        17.085700
       69.686700       -4.0395700        17.893300
       70.813800       -3.7031600        18.739100
       71.959100       -3.2986800        19.624800
       73.123000       -2.7517400        20.473400
       74.305700       -2.2455200        21.246100
       75.507600       -1.7421600        22.048000
       76.728900       -1.2222400        22.924000
       77.969900      -0.59024500        23.864900
       79.231000       0.22084000        24.812700
       80.512500        1.0731300        25.633700
       81.814700        1.9594600        26.481700
       83.138000        2.9525600        27.338600
       84.482700        4.0418300        28.185100
       85.849100        5.3408200        29.057900
       87.237700        6.7650000        29.579900
       88.648700        8.1164100        30.053600
       90.082500        9.4754300        30.534800
       91.539500        10.934000        31.023800
       93.020100        12.628400        31.520700
       94.524600        14.479200        31.613200
       96.053500        16.194200        31.576200
       97.607100        17.936900        31.539100
       99.185800        19.897700        31.502200
       100.79000        22.145200        30.967300
       102.42000        24.061800        30.106400
       104.07700        25.976200        29.269500
       105.76000        28.594500        27.842500
       107.47100        30.205900        25.598600
       109.20900        31.150400        23.535600
       110.97500        31.834200        21.638800
       112.77000        32.374800        19.894900
       114.59400        32.971800        18.291500
       116.44800        33.573900        16.137900
       118.33100        33.523100        13.953500
       120.24500        33.069000        12.064700
       122.19000        32.440600        10.431600
       124.16600        31.674500        9.0339100
       126.17500        30.894700        7.9043200
       128.21500        30.134100        6.9159800
       130.28900        29.375400        6.0512500
       132.39700        28.623400        5.2946400
       134.53800        27.878800        4.6326100
       136.71400        27.144000        4.0533700
       138.92500        26.414600        3.5465400
       141.17200        25.679100        3.1031000
       143.45600        24.906900        2.7719700
       145.77600        24.226000        2.5491200
       148.13400        23.578000        2.3441800
       150.53000        22.867300        2.2283200
       152.96400        22.281100        2.2327100
       155.43900        21.787600        2.2371100
       157.95300        21.333300        2.2415200
       160.50700        20.887500        2.2563500
       163.10300        20.483700        2.3054900
       165.74200        20.116700        2.3557100
       168.42200        19.770400        2.4070300
       171.14600        19.429800        2.4594600
       173.91500        19.097100        2.5427300
       176.72700        18.794300        2.6427500
       179.58600        18.507700        2.7467000
       182.49100        18.237800        2.8738100
       185.44200        17.992400        3.0101500
       188.44200        17.768700        3.1529700
       191.48900        17.564100        3.3025600
       194.58700        17.379300        3.4592600
       197.73400        17.221200        3.6233800
       200.93200        17.078300        3.7683500
       204.18200        16.941700        3.9175800
       207.48500        16.814200        4.0727300
       210.84000        16.699800        4.2340200
       214.25100        16.601100        4.4016900
       217.71600        16.525500        4.5760100
       221.23700        16.484300        4.7300000
       224.81600        16.435400        4.8633200
       228.45200        16.381300        5.0003800
       232.14700        16.333000        5.1413200
       235.90200        16.292600        5.2862300
       239.71700        16.263100        5.4352100
       243.59500        16.253200        5.5884000
       247.53500        16.266700        5.7225700
       251.53800        16.270400        5.8374800
       255.60700        16.271600        5.9547100
       259.74100        16.276300        6.0742900
       263.94200        16.288100        6.1962600
       268.21100        16.312400        6.3206900
       272.54900        16.369000        6.4426000
       276.95700        16.417300        6.5082900
       281.43700        16.449300        6.5746500
       285.98900        16.471900        6.6416900
       290.61500        16.490800        6.7094100
       295.31500        16.507500        6.7778200
       300.09200        16.523600        6.8469300
       304.94500        16.540100        6.9167400
       309.87800        16.558400        6.9872700
       314.89000        16.580200        7.0585200
       319.98300        16.608400        7.1304900
       325.15800        16.667200        7.2031900
       330.41800        16.721500        7.2167000
       335.76200        16.746900        7.2233100
       341.19200        16.757000        7.2299300
       346.71100        16.756700        7.2365700
       352.31900        16.748100        7.2432000
       358.01700        16.732800        7.2498400
       363.80800        16.712600        7.2564900
       369.69200        16.689600        7.2631400
       375.67200        16.667000        7.2698000
       381.74800        16.692900        7.2719600
       387.92200        16.682500        7.1680800
       394.19700        16.608500        7.0657100
       400.57300        16.496600        6.9647900
       407.05200        16.351000        6.8653000
       413.63500        16.171600        6.7672500
       420.32600        15.955400        6.6705900
       427.12400        15.687400        6.5768600
       434.03200        15.395700        6.5298700
       441.05200        15.084300        6.4832200
       448.18600        14.744500        6.4369100
       455.43500        14.366700        6.3909300
       462.80200        13.943400        6.3452700
       470.28700        13.465900        6.2999500
       477.89400        12.923000        6.2549500
       485.62300        12.300700        6.2102600
       493.47800        11.550600        6.1737900
       501.45900        10.707100        6.1934700
       509.57000        9.7500400        6.2132100
       517.81200        8.6160600        6.2330200
       526.18700        7.1953400        6.2528900
       534.69800        5.4057100        6.3747400
       543.34600        3.1572000        6.5736100
       552.13400     -0.011365400        6.7786700
       561.06500       -5.2320000        7.2585100
       570.13900       -18.584200        8.0116800
       572.90000       -52.311500        8.2533800
       573.10000       -52.234100        40.320000
       579.36100       -8.4323700        39.562000
       588.73200        1.8728200        38.468600
       598.25400        7.3957300        37.405400
       607.93000        11.165800        36.371700
       617.76300        13.968600        35.366500
       627.75500        16.100600        34.389100
       637.90800        17.609200        33.632200
       648.22600        18.988200        33.186700
       658.71100        20.342900        32.747200
       669.36500        21.586400        32.313400
       680.19100        22.743300        31.885400
       691.19300        23.872200        31.463100
       702.37200        24.891900        30.882400
       713.73300        25.760800        30.296400
       725.27700        26.494700        29.721600
       737.00800        27.114600        29.157600
       748.92800        27.581000        28.604400
       761.04200        27.884500        28.160800
       773.35100        28.182900        27.862600
       785.85900        28.456500        27.567500
       798.57000        28.257200        27.280300
       811.48600        28.239300        27.861600
       824.61100        28.685100        28.455300
       837.94900        29.390000        29.061700
       851.50200        30.785800        29.472700
       865.27400        31.996400        29.152700
       879.26900        32.839000        28.836200
       893.49100        33.614000        28.523200
       907.94300        34.335100        28.179600
       922.62800        34.986800        27.820000
       937.55100        35.569500        27.465000
       952.71500        36.054300        27.114500
       968.12400        36.534200        26.943100
       983.78300        37.100200        26.809900
       999.69500        37.787600        26.644200
       1015.8600        38.588100        26.421700
       1032.2900        39.305600        25.908200
       1048.9900        39.908500        25.396400
       1065.9600        40.427000        24.888300
       1083.2000        40.893900        24.390300
       1100.7200        41.320300        23.902300
       1118.5200        41.713200        23.424000
       1136.6100        42.077300        22.955500
       1155.0000        42.416200        22.496200
       1173.6800        42.732300        22.046000
       1192.6600        43.028100        21.605100
       1211.9500        43.305500        21.172900
       1231.5500        43.565600        20.749200
       1251.4700        43.809900        20.334700
       1271.7200        44.039900        19.929000
       1292.2900        44.257300        19.531900
       1313.1900        44.462800        19.142700
       1334.4300        44.657200        18.761300
       1356.0100        44.841400        18.387600
       1377.9400        45.016300        18.021400
       1400.2300        45.182800        17.662400
       1422.8800        45.341600        17.310500
       1445.8900        45.494500        16.965600
       1469.2800        45.643900        16.625200
       1493.0400        45.790700        16.287900
       1517.1900        45.926400        15.942300
       1541.7300        46.048100        15.602000
       1566.6700        46.158400        15.269100
       1592.0100        46.259900        14.943200
       1617.7600        46.353800        14.624200
       1643.9200        46.440900        14.311900
       1670.5100        46.522200        14.006300
       1697.5300        46.598100        13.707300
       1724.9900        46.675000        13.414700
       1752.8900        46.746500        13.117600
       1781.2400        46.808200        12.823400
       1810.0500        46.860700        12.532800
       1839.3200        46.904500        12.248700
       1869.0700        46.941700        11.971000
       1899.3000        46.972800        11.699500
       1930.0200        46.998600        11.434300
       1961.2400        47.019500        11.175200
       1992.9600        47.033900        10.922000
       2025.2000        47.051400        10.680000
       2057.9500        47.065900        10.432600
       2091.2400        47.072000        10.190000
       2125.0600        47.072800        9.9520900
       2159.4300        47.069000        9.7194700
       2194.3600        47.060900        9.4911500
       2229.8500        47.048000        9.2671400
       2265.9200        47.030700        9.0481400
       2302.5700        47.009000        8.8334600
       2339.8100        46.983500        8.6239600
       2377.6600        46.954200        8.4183600
       2416.1100        46.920400        8.2168700
       2455.1900        46.883000        8.0204500
       2494.9000        46.841300        7.8275400
       2535.2600        46.795900        7.6395300
       2576.2600        46.746500        7.4551900
       2617.9300        46.692900        7.2750900
       2660.2700        46.635300        7.0990900
       2703.3000        46.573600        6.9269500
       2747.0300        46.507500        6.7587000
       2791.4600        46.437100        6.5942900
       2836.6100        46.362200        6.4335900
       2882.4900        46.282500        6.2766100
       2929.1100        46.197700        6.1231900
       2976.4800        46.107700        5.9733800
       3024.6300        46.012100        5.8270200
       3073.5500        45.910600        5.6841600
       3123.2600        45.802600        5.5445400
       3173.7800        45.687500        5.4082400
       3225.1100        45.564900        5.2751500
       3277.2700        45.433800        5.1452000
       3330.2800        45.293400        5.0183300
       3384.1500        45.142600        4.8945300
       3438.8800        44.980000        4.7736300
       3494.5000        44.804000        4.6557100
       3551.0200        44.612700        4.5405300
       3608.4600        44.403300        4.4281500
       3666.8200        44.172800        4.3185100
       3726.1300        43.917000        4.2115200
       3786.4000        43.630300        4.1071600
       3847.6400        43.305100        4.0053100
       3909.8700        42.930600        3.9059300
       3973.1100        42.490700        3.8089300
       4037.3800        41.959800        3.7144000
       4102.6800        41.293800        3.6221600
       4169.0300        40.404500        3.5321200
       4236.4600        39.068900        3.4442800
       4304.9800        36.320200        3.3586600
       4341.3000        21.223500        3.3146900
       4341.5000        21.225200        11.360400
       4374.6200        36.019900        11.224800
       4445.3700        38.674800        10.943800
       4517.2700        39.444300        10.670000
       4590.3300        38.650800        10.402900
       4611.9000        32.364300        10.326200
