;  Atomic scattering factors for Th.
;   
;  Concatenation of data from CXRO <http://www-cxro.lbl.gov>
;  and LLNL <http://www-phys.llnl.gov/V_Div/scattering/asf.html>
;  
;  E (eV) f1 f2
;---------------
       10.000000       -9999.0000        3.1476900
       10.161700       -9999.0000        3.1007000
       10.326100       -9999.0000        3.0544200
       10.493100       -9999.0000        3.0088300
       10.662800       -9999.0000        2.9639200
       10.835300       -9999.0000        2.9196800
       11.010600       -9999.0000        2.8761100
       11.188600       -9999.0000        2.8331800
       11.369600       -9999.0000        2.7908900
       11.553500       -9999.0000        2.7402400
       11.740400       -9999.0000        2.6620100
       11.930300       -9999.0000        2.5860000
       12.123200       -9999.0000        2.5121700
       12.319300       -9999.0000        2.4404400
       12.518600       -9999.0000        2.3745700
       12.721000       -9999.0000        2.3261000
       12.926800       -9999.0000        2.2786300
       13.135900       -9999.0000        2.2321200
       13.348300       -9999.0000        2.1865600
       13.564200       -9999.0000        2.1335800
       13.783600       -9999.0000        2.0814200
       14.006600       -9999.0000        2.0305300
       14.233100       -9999.0000        1.9758800
       14.463300       -9999.0000        1.9100300
       14.697300       -9999.0000        1.8463700
       14.935000       -9999.0000        1.7848400
       15.176500       -9999.0000        1.7440400
       15.422000       -9999.0000        1.7096500
       15.671400       -9999.0000        1.6759300
       15.924900       -9999.0000        1.6889900
       16.182500       -9999.0000        1.7081900
       16.444200       -9999.0000        1.7279700
       16.710200       -9999.0000        1.7831800
       16.980500       -9999.0000        1.8422000
       17.255100       -9999.0000        1.9252700
       17.534200       -9999.0000        2.0241300
       17.817800       -9999.0000        2.1453200
       18.106000       -9999.0000        2.2737700
       18.398900       -9999.0000        2.5647500
       18.696400       -9999.0000        3.0503000
       18.998800       -9999.0000        3.7144800
       19.306100       -9999.0000        4.5580300
       19.618400       -9999.0000        5.5931400
       19.935700       -9999.0000        6.6044000
       20.258200       -9999.0000        7.2892000
       20.585800       -9999.0000        8.0253400
       20.918800       -9999.0000        8.4164500
       21.257100       -9999.0000        8.8266300
       21.600900       -9999.0000        9.2568000
       21.950300       -9999.0000        9.7079400
       22.305300       -9999.0000        10.037600
       22.666100       -9999.0000        10.293400
       23.032700       -9999.0000        10.555600
       23.405300       -9999.0000        10.824600
       23.783800       -9999.0000        11.100400
       24.168500       -9999.0000        11.325000
       24.559400       -9999.0000        11.548000
       24.956600       -9999.0000        11.775400
       25.360300       -9999.0000        12.007300
       25.770500       -9999.0000        12.243700
       26.187300       -9999.0000        12.344700
       26.610900       -9999.0000        12.402200
       27.041300       -9999.0000        12.459900
       27.478600       -9999.0000        12.517900
       27.923100       -9999.0000        12.576200
       28.374700       -9999.0000        12.634800
       28.833700       -9999.0000        12.673200
       29.300000        13.213200        12.670900
       29.773900        13.585400        12.668500
       30.255500        13.953200        12.666200
       30.744900        14.323500        12.663800
       31.242100        14.702800        12.661500
       31.747500        15.099700        12.659100
       32.260900        15.531300        12.656800
       32.782700        16.056700        12.654400
       33.313000        16.621000        12.397300
       33.851800        17.037200        12.103000
       34.399300        17.379000        11.815600
       34.955700        17.680800        11.535100
       35.521100        17.953000        11.261300
       36.095600        18.205400        10.993900
       36.679400        18.450800        10.732900
       37.272700        18.677200        10.436300
       37.875500        18.866000        10.144000
       38.488200        19.031700        9.8598600
       39.110700        19.181200        9.5837200
       39.743200        19.325100        9.3153100
       40.386100        19.483700        9.0459700
       41.039300        19.608100        8.7126600
       41.703100        19.683600        8.3916300
       42.377600        19.729400        8.0824300
       43.063000        19.751800        7.7846200
       43.759500        19.754300        7.4977900
       44.467300        19.738800        7.2215200
       45.186500        19.706800        6.9554400
       45.917400        19.658900        6.6991500
       46.660000        19.593100        6.4523200
       47.414700        19.515200        6.2268000
       48.181600        19.431100        6.0098300
       48.960900        19.338600        5.8004300
       49.752800        19.236300        5.5983100
       50.557600        19.123800        5.4032500
       51.375300        19.000700        5.2149800
       52.206200        18.866400        5.0332700
       53.050600        18.719900        4.8578900
       53.908700        18.559600        4.6886200
       54.780600        18.379400        4.5252500
       55.666700        18.160900        4.3853100
       56.567000        17.958800        4.2902200
       57.482000        17.768400        4.1971800
       58.411700        17.577300        4.1061600
       59.356400        17.382000        4.0171200
       60.316500        17.180200        3.9300000
       61.292100        16.969900        3.8447800
       62.283400        16.749600        3.7614100
       63.290800        16.517500        3.6798400
       64.314500        16.271800        3.6000400
       65.354700        16.010400        3.5219700
       66.411800        15.729700        3.4469800
       67.485900        15.432400        3.3784200
       68.577500        15.116200        3.3112300
       69.686700        14.777600        3.2453700
       70.813800        14.412900        3.1808300
       71.959100        14.018100        3.1175600
       73.123000        13.588800        3.0555600
       74.305700        13.119300        2.9947900
       75.507600        12.602900        2.9350600
       76.728900        12.030400        2.8762000
       77.969900        11.390200        2.8185100
       79.231000        10.665000        2.7619900
       80.512500        9.8393800        2.7177400
       81.814700        8.9000300        2.6739400
       83.138000        7.7532000        2.5953500
       84.482700        6.3457800        2.5996700
       85.849100        4.4998800        2.6464600
       87.237700        1.7315200        3.0561500
       88.648700       -1.7176200        5.1478000
       90.082500       -4.4599600        9.8173200
       91.539500       -1.3448600        18.722200
       93.020100        7.0396700        11.952200
       94.524600        2.6597500        4.8982200
       96.053500       -4.9962900        4.8325700
       97.607100       -13.759700        7.7027200
       99.185800       -22.836100        14.742700
       100.79000       -31.072200        28.217600
       102.42000       -29.843900        54.007500
       104.07700       -10.077200        67.787600
       105.76000        6.2217300        71.266700
       107.47100        22.156900        70.820600
       109.20900        36.020100        61.680400
       110.97500        42.318700        51.030000
       112.77000        43.111500        42.218400
       114.59400        42.582900        37.758900
       116.44800        42.635300        34.154900
       118.33100        42.232100        31.220400
       120.24500        42.228100        29.142400
       122.19000        42.377200        27.202700
       124.16600        42.563300        25.392200
       126.17500        42.830100        23.669200
       128.21500        42.910900        21.741900
       130.28900        42.759600        19.971600
       132.39700        42.405200        18.345400
       134.53800        41.728300        16.975300
       136.71400        41.255900        16.164400
       138.92500        40.969100        15.392300
       141.17200        40.821400        14.657000
       143.45600        40.747300        13.832300
       145.77600        40.598600        12.987000
       148.13400        40.421000        12.193400
       150.53000        40.240900        11.448300
       152.96400        40.086400        10.748700
       155.43900        40.124600        9.9850500
       157.95300        39.942000        8.9940800
       160.50700        39.566400        8.1014600
       163.10300        39.108700        7.2974000
       165.74200        38.592800        6.5946600
       168.42200        38.056400        5.9735200
       171.14600        37.492200        5.4109100
       173.91500        36.841400        4.9255000
       176.72700        36.262900        4.6609900
       179.58600        35.762300        4.4106800
       182.49100        35.307200        4.1738200
       185.44200        34.874300        3.9496800
       188.44200        34.454400        3.7375700
       191.48900        34.036500        3.5368500
       194.58700        33.615000        3.3690100
       197.73400        33.210700        3.2228200
       200.93200        32.810900        3.0829700
       204.18200        32.379300        2.9491900
       207.48500        31.957000        2.9269300
       210.84000        31.587300        2.9204900
       214.25100        31.255100        2.9140600
       217.71600        30.940800        2.9076400
       221.23700        30.638500        2.9012400
       224.81600        30.342900        2.8948500
       228.45200        30.040800        2.8884800
       232.14700        29.738400        2.9115100
       235.90200        29.458900        2.9482800
       239.71700        29.193500        2.9855200
       243.59500        28.938100        3.0232300
       247.53500        28.689700        3.0569600
       251.53800        28.439800        3.0872300
       255.60700        28.186800        3.1178000
       259.74100        27.927100        3.1486800
       263.94200        27.646400        3.1869900
       268.21100        27.375900        3.2599100
       272.54900        27.115800        3.3345000
       276.95700        26.860700        3.4107900
       281.43700        26.607300        3.4888400
       285.98900        26.355100        3.5686600
       290.61500        26.107900        3.6503200
       295.31500        25.859500        3.7110000
       300.09200        25.590100        3.7639300
       304.94500        25.297600        3.8176100
       309.87800        24.980600        3.8720600
       314.89000        24.614500        3.9468300
       319.98300        24.249000        4.0594400
       325.15800        23.880400        4.1752600
       330.41800        23.485800        4.2943900
       335.76200        23.062800        4.4401100
       341.19200        22.618600        4.5992300
       346.71100        22.135700        4.7640600
       352.31900        21.550400        4.9545500
       358.01700        20.964600        5.2957400
       363.80800        20.384300        5.6604400
       369.69200        19.673800        6.0983300
       375.67200        19.032000        6.7414500
       381.74800        18.480700        7.4523700
       387.92200        17.989200        8.2383000
       394.19700        17.596400        9.1070900
       400.57300        17.369200        9.9636400
       407.05200        17.108100        10.722300
       413.63500        16.832200        11.538800
       420.32600        16.574400        12.417400
       427.12400        16.356700        13.362900
       434.03200        16.194800        14.380400
       441.05200        16.116700        15.475400
       448.18600        16.242700        16.597800
       455.43500        16.404600        17.645800
       462.80200        16.618300        18.760100
       470.28700        17.077300        19.882200
       477.89400        17.525100        20.781000
       485.62300        17.977400        21.720400
       493.47800        18.559200        22.702300
       501.45900        19.387800        23.534800
       509.57000        20.071000        24.058200
       517.81200        20.645900        24.593300
       526.18700        21.183200        25.140200
       534.69800        21.710200        25.699300
       543.34600        22.251600        26.270900
       552.13400        22.843100        26.823900
       561.06500        23.405900        27.313900
       570.13900        23.950200        27.812800
       579.36100        24.495800        28.320800
       588.73200        25.052700        28.838100
       598.25400        25.659600        29.364800
       607.93000        26.271500        29.829600
       617.76300        26.871000        30.300700
       627.75500        27.480200        30.779200
       637.90800        28.108500        31.265200
       648.22600        28.769900        31.758900
       658.71100        29.466500        32.234400
       669.36500        30.187200        32.704300
       680.19100        30.942800        33.181000
       691.19300        31.756400        33.664800
       702.37200        32.708800        34.155500
       713.73300        33.864900        34.477200
       725.27700        34.870500        34.490700
       737.00800        35.751200        34.504000
       748.92800        36.592100        34.517400
       761.04200        37.404200        34.496000
       773.35100        38.166300        34.450200
       785.85900        38.893500        34.404400
       798.57000        39.638200        34.358700
       811.48600        40.350400        34.225200
       824.61100        40.985700        34.072900
       837.94900        41.564600        33.921200
       851.50200        42.087900        33.770300
       865.27400        42.521900        33.620000
       879.26900        42.907500        33.599600
       893.49100        43.320700        33.626700
       907.94300        43.690300        33.653700
       922.62800        44.066100        33.828400
       937.55100        44.548100        34.063400
       952.71500        45.106100        34.299900
       968.12400        45.730200        34.538100
       983.78300        46.394300        34.777900
       999.69500        47.640800        34.752500
       1015.8600        47.503800        33.677400
       1032.2900        47.818400        35.319500
       1048.9900        49.454000        36.018600
       1065.9600        50.820400        35.593100
       1083.2000        51.815000        35.171500
       1100.7200        52.661900        34.754700
       1118.5200        53.417500        34.342600
       1136.6100        54.106800        33.934500
       1155.0000        54.743600        33.530900
       1173.6800        55.335800        33.131500
       1192.6600        55.888200        32.736400
       1211.9500        56.402500        32.345400
       1231.5500        56.870700        31.958500
       1251.4700        57.297600        31.608400
       1271.7200        57.697700        31.297100
       1292.2900        58.117600        31.031600
       1313.1900        58.551500        30.767700
       1334.4300        58.989900        30.505800
       1356.0100        59.431300        30.245800
       1377.9400        59.875800        29.986800
       1400.2300        60.325400        29.729500
       1422.8800        60.784600        29.473900
       1445.8900        61.262900        29.219400
       1469.2800        61.780700        28.942900
       1493.0400        62.343500        28.632700
       1517.1900        62.864300        28.176500
       1541.7300        63.310500        27.706500
       1566.6700        63.698600        27.243200
       1592.0100        64.052400        26.786600
       1617.7600        64.377800        26.337400
       1643.9200        64.679800        25.895500
       1670.5100        64.961600        25.460100
       1697.5300        65.225300        25.031300
       1724.9900        65.480200        24.608800
       1752.8900        65.718200        24.177900
       1781.2400        65.933900        23.748900
       1810.0500        66.128600        23.322700
       1839.3200        66.302800        22.903700
       1869.0700        66.460100        22.492000
       1899.3000        66.602100        22.087600
       1930.0200        66.729200        21.689400
       1961.2400        66.841800        21.297800
       1992.9600        66.936900        20.912700
       2025.2000        67.032300        20.544700
       2057.9500        67.116500        20.162000
       2091.2400        67.179000        19.783800
       2125.0600        67.225800        19.410700
       2159.4300        67.256300        19.041200
       2194.3600        67.270800        18.677100
       2229.8500        67.269200        18.317100
       2265.9200        67.250800        17.961700
       2302.5700        67.214100        17.610400
       2339.8100        67.159900        17.265100
       2377.6600        67.087100        16.923300
       2416.1100        66.993700        16.586000
       2455.1900        66.879300        16.253900
       2494.9000        66.742100        15.925900
       2535.2600        66.580000        15.602600
       2576.2600        66.391300        15.284200
       2617.9300        66.172800        14.970100
       2660.2700        65.922500        14.661700
       2703.3000        65.635800        14.356300
       2747.0300        65.307100        14.055700
       2791.4600        64.930800        13.759900
       2836.6100        64.498900        13.468600
       2882.4900        64.000600        13.181400
       2929.1100        63.422000        12.898800
       2976.4800        62.743200        12.620500
       3024.6300        61.935900        12.346600
       3073.5500        60.956800        12.076800
       3123.2600        59.734600        11.811200
       3173.7800        58.139600        11.549800
       3225.1100        55.890400        11.292600
       3277.2700        52.129600        11.039300
       3330.2800        33.869600        10.790200
       3331.9000        19.161900        10.782800
       3332.1000        19.165500        27.041400
       3384.1500        50.801000        26.350800
       3438.8800        52.753500        25.654600
       3490.7000        34.055100        25.022100
       3490.9000        34.072900        35.859400
       3494.5000        46.155000        35.802000
       3551.0200        57.470000        34.921300
       3608.4600        61.142900        34.064000
       3666.8200        63.580500        33.228000
       3726.1300        65.386700        32.414200
       3786.4000        66.768300        31.621800
       3847.6400        67.805500        30.850300
       3909.8700        68.493500        30.097300
       3973.1100        68.664700        29.363100
       4037.3800        66.531500        28.648900
       4046.0000        59.905700        28.555300
       4046.2000        59.915000        33.308500
       4102.6800        70.240800        32.620600
       4169.0300        72.207000        31.841800
       4236.4600        73.560100        31.082600
       4304.9800        74.631800        30.342100
       4374.6200        75.522300        29.619600
       4445.3700        76.275800        28.915000
       4517.2700        76.915500        28.228200
