;  Atomic scattering factors for Tl.
;   
;  Concatenation of data from CXRO <http://www-cxro.lbl.gov>
;  and LLNL <http://www-phys.llnl.gov/V_Div/scattering/asf.html>
;  
;  E (eV) f1 f2
;---------------
       10.000000       -9999.0000        1.8039200
       10.161700       -9999.0000        1.7555500
       10.326100       -9999.0000        1.6958900
       10.493100       -9999.0000        1.5954600
       10.662800       -9999.0000        1.4662500
       10.835300       -9999.0000        1.3934100
       11.010600       -9999.0000        1.3134900
       11.188600       -9999.0000        1.2078300
       11.369600       -9999.0000        1.1326100
       11.553500       -9999.0000        1.0738700
       11.740400       -9999.0000        1.0385000
       11.930300       -9999.0000        1.0467800
       12.123200       -9999.0000        1.0551300
       12.319300       -9999.0000        1.0978500
       12.518600       -9999.0000        1.1507600
       12.721000       -9999.0000        1.2828200
       12.926800       -9999.0000        1.4541000
       13.135900       -9999.0000        1.6436700
       13.348300       -9999.0000        1.8732500
       13.564200       -9999.0000        2.1409300
       13.783600       -9999.0000        2.3382200
       14.006600       -9999.0000        2.5381700
       14.233100       -9999.0000        2.7552300
       14.463300       -9999.0000        2.8971200
       14.697300       -9999.0000        2.9976900
       14.935000       -9999.0000        3.1017500
       15.176500       -9999.0000        3.1806400
       15.422000       -9999.0000        3.2547500
       15.671400       -9999.0000        3.2543800
       15.924900       -9999.0000        3.2481000
       16.182500       -9999.0000        3.2440300
       16.444200       -9999.0000        3.2631700
       16.710200       -9999.0000        3.2824200
       16.980500       -9999.0000        3.3017800
       17.255100       -9999.0000        3.3212600
       17.534200       -9999.0000        3.3641200
       17.817800       -9999.0000        3.4162700
       18.106000       -9999.0000        3.4692400
       18.398900       -9999.0000        3.5230300
       18.696400       -9999.0000        3.5776500
       18.998800       -9999.0000        3.6331200
       19.306100       -9999.0000        3.6894500
       19.618400       -9999.0000        3.7466500
       19.935700       -9999.0000        3.8387400
       20.258200       -9999.0000        3.9550600
       20.585800       -9999.0000        4.0749100
       20.918800       -9999.0000        4.1983900
       21.257100       -9999.0000        4.3256200
       21.600900       -9999.0000        4.4566900
       21.950300       -9999.0000        4.5925600
       22.305300       -9999.0000        4.7604200
       22.666100       -9999.0000        4.9344200
       23.032700       -9999.0000        5.1147800
       23.405300       -9999.0000        5.3017300
       23.783800       -9999.0000        5.4955100
       24.168500       -9999.0000        5.6963800
       24.559400       -9999.0000        5.9045900
       24.956600       -9999.0000        6.1204100
       25.360300       -9999.0000        6.3441200
       25.770500       -9999.0000        6.5760000
       26.187300       -9999.0000        6.8262700
       26.610900       -9999.0000        7.0924800
       27.041300       -9999.0000        7.3690800
       27.478600       -9999.0000        7.6564700
       27.923100       -9999.0000        7.9550700
       28.374700       -9999.0000        8.2653100
       28.833700       -9999.0000        8.5876500
       29.300000       -3.6073500        8.9039900
       29.773900       -3.5908500        9.2212600
       30.255500       -3.5721100        9.5498300
       30.744900       -3.5435300        9.8901200
       31.242100       -3.5030100        10.242500
       31.747500       -3.4474000        10.607500
       32.260900       -3.3608300        10.985400
       32.782700       -3.2460600        11.350500
       33.313000       -3.1336500        11.696100
       33.851800       -3.0208100        12.052200
       34.399300       -2.8986400        12.419200
       34.955700       -2.7614400        12.797300
       35.521100       -2.6035500        13.187000
       36.095600       -2.4094000        13.588500
       36.679400       -2.1699700        13.955200
       37.272700       -1.9376700        14.282400
       37.875500       -1.7246600        14.617200
       38.488200       -1.5055800        14.960000
       39.110700       -1.2764200        15.310700
       39.743200       -1.0342200        15.669700
       40.386100      -0.74430400        16.034000
       41.039300      -0.44932800        16.352300
       41.703100      -0.16950500        16.677100
       42.377600       0.11850400        17.008200
       43.063000       0.41817200        17.345900
       43.759500       0.73438800        17.690400
       44.467300        1.0731200        18.041600
       45.186500        1.4542700        18.399900
       45.917400        1.8644500        18.706400
       46.660000        2.2684200        18.991400
       47.414700        2.6666500        19.280800
       48.181600        3.0784700        19.574600
       48.960900        3.5120600        19.872900
       49.752800        3.9916900        20.175700
       50.557600        4.5058400        20.410900
       51.375300        5.0038000        20.608000
       52.206200        5.4821400        20.807100
       53.050600        5.9668300        21.008100
       53.908700        6.4657600        21.211000
       54.780600        7.0007800        21.415900
       55.666700        7.5517000        21.562700
       56.567000        8.0917800        21.693900
       57.482000        8.6271900        21.825800
       58.411700        9.1735000        21.958600
       59.356400        9.7374900        22.092200
       60.316500        10.327600        22.226600
       61.292100        10.955400        22.361800
       62.283400        11.621200        22.497900
       63.290800        12.546500        22.634800
       64.314500        13.454500        22.367500
       65.354700        14.142000        22.060600
       66.411800        14.753100        21.757800
       67.485900        15.312700        21.459200
       68.577500        15.834900        21.164700
       69.686700        16.329000        20.874200
       70.813800        16.801900        20.587800
       71.959100        17.259700        20.305200
       73.123000        17.709100        20.026600
       74.305700        18.160000        19.751700
       75.507600        18.643300        19.480700
       76.728900        19.150800        19.109900
       77.969900        19.589100        18.664800
       79.231000        19.941600        18.230100
       80.512500        20.255400        17.805500
       81.814700        20.535700        17.390800
       83.138000        20.781300        16.987300
       84.482700        21.010800        16.614000
       85.849100        21.232900        16.248800
       87.237700        21.445700        15.891700
       88.648700        21.650700        15.542500
       90.082500        21.863800        15.200900
       91.539500        22.082200        14.841500
       93.020100        22.270000        14.450900
       94.524600        22.427900        14.070600
       96.053500        22.569400        13.700300
       97.607100        22.701200        13.339700
       99.185800        22.831600        12.988600
       100.79000        22.992800        12.646700
       102.42000        23.130200        12.210500
       104.07700        23.209300        11.782000
       105.76000        23.252000        11.368500
       107.47100        23.272000        10.969600
       109.20900        23.275400        10.584600
       110.97500        23.264300        10.213200
       112.77000        23.287000        9.8547900
       114.59400        23.289900        9.4225100
       116.44800        23.214100        8.9837100
       118.33100        23.091100        8.5653300
       120.24500        22.927700        8.1664200
       122.19000        22.712900        7.7861100
       124.16600        22.442000        7.4845400
       126.17500        22.194000        7.2711400
       128.21500        21.995100        7.0638200
       130.28900        21.803300        6.8624100
       132.39700        21.615800        6.6667600
       134.53800        21.433200        6.4766700
       136.71400        21.250300        6.2782900
       138.92500        21.054000        6.0772000
       141.17200        20.841500        5.8825700
       143.45600        20.616400        5.6941600
       145.77600        20.375900        5.5117900
       148.13400        20.120100        5.3383400
       150.53000        19.848300        5.1708400
       152.96400        19.557600        5.0085800
       155.43900        19.208600        4.8514200
       157.95300        18.842800        4.7690200
       160.50700        18.499000        4.6997400
       163.10300        18.146700        4.6314500
       165.74200        17.710700        4.5641700
       168.42200        17.265400        4.6245800
       171.14600        16.877600        4.6998200
       173.91500        16.475000        4.7762800
       176.72700        16.060400        4.9145700
       179.58600        15.670000        5.0859800
       182.49100        15.270700        5.2633700
       185.44200        14.861400        5.5007900
       188.44200        14.495300        5.8089200
       191.48900        14.182600        6.1342900
       194.58700        13.904400        6.4478600
       197.73400        13.633800        6.7597200
       200.93200        13.364700        7.0866800
       204.18200        13.105500        7.4294300
       207.48500        12.855400        7.7900000
       210.84000        12.617500        8.1693200
       214.25100        12.392100        8.5671000
       217.71600        12.181100        8.9842600
       221.23700        11.990100        9.4217100
       224.81600        11.820200        9.8712500
       228.45200        11.660700        10.327300
       232.14700        11.511900        10.804500
       235.90200        11.379000        11.303700
       239.71700        11.267500        11.826000
       243.59500        11.182900        12.372400
       247.53500        11.148100        12.944100
       251.53800        11.139300        13.474400
       255.60700        11.129500        14.025200
       259.74100        11.138200        14.598500
       263.94200        11.175800        15.195300
       268.21100        11.275600        15.816400
       272.54900        11.440800        16.414400
       276.95700        11.607100        16.934200
       281.43700        11.752500        17.470400
       285.98900        11.905600        18.023600
       290.61500        12.078100        18.594300
       295.31500        12.279900        19.183000
       300.09200        12.540900        19.790500
       304.94500        12.835800        20.324600
       309.87800        13.117200        20.861900
       314.89000        13.408100        21.413500
       319.98300        13.726100        21.979600
       325.15800        14.089700        22.560700
       330.41800        14.543500        23.149700
       335.76200        15.021900        23.575400
       341.19200        15.442600        24.009000
       346.71100        15.857100        24.450500
       352.31900        16.279200        24.900200
       358.01700        16.719300        25.358100
       363.80800        17.198900        25.824500
       369.69200        17.716600        26.236900
       375.67200        18.222500        26.618000
       381.74800        18.714400        27.004500
       387.92200        19.218700        27.396800
       394.19700        19.742100        27.794700
       400.57300        20.293300        28.198400
       407.05200        20.914200        28.607900
       413.63500        21.613200        28.964500
       420.32600        22.295900        29.157900
       427.12400        22.909000        29.352600
       434.03200        23.502500        29.548600
       441.05200        24.090200        29.745900
       448.18600        24.688600        29.944600
       455.43500        25.311300        30.132500
       462.80200        25.934500        30.252400
       470.28700        26.524900        30.362200
       477.89400        27.098200        30.472300
       485.62300        27.667000        30.583700
       493.47800        28.237300        30.695700
       501.45900        28.814000        30.807600
       509.57000        29.409500        30.918800
       517.81200        30.029900        31.018100
       526.18700        30.698400        31.074400
       534.69800        31.361500        31.042300
       543.34600        31.955600        30.966600
       552.13400        32.515400        30.892900
       561.06500        33.058500        30.808500
       570.13900        33.583900        30.714100
       579.36100        34.082500        30.585100
       588.73200        34.537200        30.448500
       598.25400        34.947800        30.307100
       607.93000        35.310700        30.165400
       617.76300        35.601200        30.024500
       627.75500        35.784900        29.900900
       637.90800        35.805400        29.984000
       648.22600        35.884300        30.341500
       658.71100        36.236600        30.888600
       669.36500        36.862000        31.445300
       680.19100        37.739900        31.789900
       691.19300        38.664900        31.946600
       702.37200        39.597100        31.911800
       713.73300        40.469300        31.719800
       725.27700        41.188100        31.421000
       737.00800        41.801200        31.124900
       748.92800        42.338600        30.831300
       761.04200        42.805700        30.544300
       773.35100        43.159200        30.300900
       785.85900        43.475000        30.192500
       798.57000        43.881500        30.195000
       811.48600        44.364900        30.197200
       824.61100        44.907100        30.198900
       837.94900        45.524900        30.200400
       851.50200        46.252400        30.095700
       865.27400        46.982100        29.859200
       879.26900        47.609800        29.507500
       893.49100        48.156600        29.159400
       907.94300        48.657800        28.815100
       922.62800        49.121100        28.474600
       937.55100        49.557800        28.160600
       952.71500        49.989300        27.855900
       968.12400        50.419900        27.559700
       983.78300        50.856300        27.266100
       999.69500        51.308900        26.962500
       1015.8600        51.787100        26.648300
       1032.2900        52.250900        26.206400
       1048.9900        52.631800        25.770100
       1065.9600        52.973300        25.340200
       1083.2000        53.284800        24.916500
       1100.7200        53.570600        24.499800
       1118.5200        53.834800        24.089800
       1136.6100        54.079300        23.685900
       1155.0000        54.305500        23.288600
       1173.6800        54.515100        22.897600
       1192.6600        54.709100        22.512600
       1211.9500        54.888000        22.133600
       1231.5500        55.052800        21.760700
       1251.4700        55.203900        21.393600
       1271.7200        55.341900        21.032500
       1292.2900        55.467400        20.677000
       1313.1900        55.580700        20.327100
       1334.4300        55.681900        19.982800
       1356.0100        55.771400        19.644000
       1377.9400        55.849400        19.310200
       1400.2300        55.915800        18.982100
       1422.8800        55.971700        18.659400
       1445.8900        56.017200        18.341200
       1469.2800        56.052400        18.027100
       1493.0400        56.078100        17.716400
       1517.1900        56.091500        17.401800
       1541.7300        56.086500        17.091600
       1566.6700        56.066200        16.786700
       1592.0100        56.031200        16.486800
       1617.7600        55.980900        16.192000
       1643.9200        55.915600        15.902300
       1670.5100        55.834900        15.617700
       1697.5300        55.738400        15.337900
       1724.9900        55.630500        15.062500
       1752.8900        55.505200        14.779700
       1781.2400        55.350500        14.497800
       1810.0500        55.169000        14.217600
       1839.3200        54.957100        13.942600
       1869.0700        54.714600        13.673000
       1899.3000        54.438900        13.408800
       1930.0200        54.126400        13.149400
       1961.2400        53.771900        12.894800
       1992.9600        53.368300        12.645000
       2025.2000        52.915400        12.407600
       2057.9500        52.402200        12.158700
       2091.2400        51.798600        11.912200
       2125.0600        51.092700        11.668800
       2159.4300        50.256000        11.429000
       2194.3600        49.246700        11.192000
       2229.8500        47.997100        10.958300
       2265.9200        46.388500        10.727500
       2302.5700        44.178900        10.500100
       2339.8100        40.720900        10.275600
       2377.6600        32.280400        10.054400
       2389.2000        6.2125400        9.9885200
       2389.4000        6.2124500        27.087000
       2416.1100        35.907500        26.639200
       2455.1900        38.246700        26.006000
       2485.0000        19.535500        25.539700
       2485.2000        19.561800        37.368200
       2494.9000        37.132300        37.156900
       2535.2600        45.392500        36.299100
       2576.2600        49.221900        35.461500
       2617.9300        51.869400        34.644100
       2660.2700        53.887100        33.846600
       2703.3000        55.486400        33.068400
       2747.0300        56.766800        32.308600
       2791.4600        57.773400        31.568400
       2836.6100        58.505000        30.845300
       2882.4900        58.874100        30.139800
       2929.1100        58.401500        29.450600
       2956.5000        50.711600        29.058100
       2956.7000        50.716200        33.665500
       2976.4800        58.860300        33.349200
       3024.6300        61.466000        32.600200
       3073.5500        62.959300        31.867700
       3123.2600        64.090600        31.151800
       3173.7800        65.010900        30.454300
       3225.1100        65.774500        29.771800
       3277.2700        66.396800        29.107000
       3330.2800        66.858800        28.456300
       3384.1500        66.999500        27.822100
       3415.6000        64.458600        27.462800
       3415.8000        64.461100        29.041100
       3438.8800        67.446300        28.761500
       3494.5000        68.573800        28.106100
       3551.0200        69.276800        27.467700
       3608.4600        69.792900        26.844100
       3666.8200        70.080000        26.234400
       3704.0000        68.613500        25.858100
       3704.2000        68.615000        26.804400
       3726.1300        70.421300        26.595900
       3786.4000        71.287000        26.037400
       3847.6400        71.893300        25.484700
       3909.8700        72.409400        24.940600
       3973.1100        72.870800        24.404200
       4037.3800        73.290000        23.874100
       4102.6800        73.672600        23.350900
       4169.0300        74.024500        22.836800
       4236.4600        74.350600        22.331100
