;  Atomic scattering factors for Tm.
;   
;  Concatenation of data from CXRO <http://www-cxro.lbl.gov>
;  and LLNL <http://www-phys.llnl.gov/V_Div/scattering/asf.html>
;  
;  E (eV) f1 f2
;---------------
       10.000000       -9999.0000       0.17917800
       10.161700       -9999.0000       0.18356200
       10.326100       -9999.0000       0.18805300
       10.493100       -9999.0000       0.19265500
       10.662800       -9999.0000       0.19736900
       10.835300       -9999.0000       0.20219800
       11.010600       -9999.0000       0.20714500
       11.188600       -9999.0000       0.21221400
       11.369600       -9999.0000       0.21740600
       11.553500       -9999.0000       0.22272600
       11.740400       -9999.0000       0.22803200
       11.930300       -9999.0000       0.23336200
       12.123200       -9999.0000       0.23881600
       12.319300       -9999.0000       0.24439800
       12.518600       -9999.0000       0.25246500
       12.721000       -9999.0000       0.26093800
       12.926800       -9999.0000       0.26969500
       13.135900       -9999.0000       0.27895600
       13.348300       -9999.0000       0.28875000
       13.564200       -9999.0000       0.29888800
       13.783600       -9999.0000       0.30938100
       14.006600       -9999.0000       0.32024300
       14.233100       -9999.0000       0.33078500
       14.463300       -9999.0000       0.34162800
       14.697300       -9999.0000       0.35282700
       14.935000       -9999.0000       0.36336700
       15.176500       -9999.0000       0.37192000
       15.422000       -9999.0000       0.38067400
       15.671400       -9999.0000       0.38963500
       15.924900       -9999.0000       0.40138800
       16.182500       -9999.0000       0.41449400
       16.444200       -9999.0000       0.42802800
       16.710200       -9999.0000       0.44200400
       16.980500       -9999.0000       0.45490600
       17.255100       -9999.0000       0.46752200
       17.534200       -9999.0000       0.48048800
       17.817800       -9999.0000       0.49314600
       18.106000       -9999.0000       0.50431300
       18.398900       -9999.0000       0.51573400
       18.696400       -9999.0000       0.52815700
       18.998800       -9999.0000       0.54355700
       19.306100       -9999.0000       0.55940700
       19.618400       -9999.0000       0.57621900
       19.935700       -9999.0000       0.59638000
       20.258200       -9999.0000       0.61724800
       20.585800       -9999.0000       0.63430700
       20.918800       -9999.0000       0.64972900
       21.257100       -9999.0000       0.66552500
       21.600900       -9999.0000       0.68158200
       21.950300       -9999.0000       0.69786200
       22.305300       -9999.0000       0.71453200
       22.666100       -9999.0000       0.73198500
       23.032700       -9999.0000       0.77336100
       23.405300       -9999.0000       0.81707600
       23.783800       -9999.0000       0.87789000
       24.168500       -9999.0000       0.97314600
       24.559400       -9999.0000        1.0796400
       24.956600       -9999.0000        1.2140800
       25.360300       -9999.0000        1.3674900
       25.770500       -9999.0000        1.7160600
       26.187300       -9999.0000        2.5251200
       26.610900       -9999.0000        2.8951400
       27.041300       -9999.0000        3.6339100
       27.478600       -9999.0000        4.2506100
       27.923100       -9999.0000        4.8094600
       28.374700       -9999.0000        5.4778500
       28.833700       -9999.0000        6.1975500
       29.300000       -1.8327200        6.8710000
       29.773900       -1.5937500        7.5857000
       30.255500       -1.1827800        8.3489200
       30.744900      -0.63269900        8.7794600
       31.242100      -0.17601000        9.1680300
       31.747500       0.26410000        9.4910900
       32.260900       0.70109600        9.8223700
       32.782700        1.2222800        10.075900
       33.313000        1.6553700        10.238600
       33.851800        2.0579700        10.403900
       34.399300        2.4521900        10.553400
       34.955700        2.8407900        10.700900
       35.521100        3.2534200        10.850500
       36.095600        3.6878800        10.911300
       36.679400        4.0643000        10.943300
       37.272700        4.4121400        10.980500
       37.875500        4.7620100        11.032000
       38.488200        5.1435200        11.083600
       39.110700        5.6121100        11.059100
       39.743200        5.9782700        10.928600
       40.386100        6.2805000        10.798300
       41.039300        6.5468900        10.666900
       41.703100        6.7887500        10.536600
       42.377600        6.9894800        10.380400
       43.063000        7.1230300        10.226500
       43.759500        7.2324400        10.167800
       44.467300        7.3672500        10.117800
       45.186500        7.5036800        10.068000
       45.917400        7.6288500        10.018500
       46.660000        7.7538500        10.004200
       47.414700        7.8993500        9.9943000
       48.181600        8.0666300        9.9844300
       48.960900        8.2821500        9.9343900
       49.752800        8.4430100        9.8356100
       50.557600        8.5671300        9.7378000
       51.375300        8.6577300        9.6496800
       52.206200        8.7473900        9.5967200
       53.050600        8.8413600        9.5440500
       53.908700        8.9347700        9.4916600
       54.780600        9.0255200        9.4364100
       55.666700        9.1076300        9.3791300
       56.567000        9.1813300        9.3222000
       57.482000        9.2450700        9.2656100
       58.411700        9.2989600        9.2149900
       59.356400        9.3460800        9.1664700
       60.316500        9.3788000        9.1182000
       61.292100        9.3955400        9.0921100
       62.283400        9.4186300        9.0755900
       63.290800        9.4380400        9.0591100
       64.314500        9.4361800        9.0459300
       65.354700        9.4390000        9.0819600
       66.411800        9.4592600        9.1181400
       67.485900        9.4884300        9.1544700
       68.577500        9.5206300        9.1913500
       69.686700        9.5553400        9.2297400
       70.813800        9.5909900        9.2683000
       71.959100        9.6253200        9.3070100
       73.123000        9.6528300        9.3458900
       74.305700        9.6781100        9.4052900
       75.507600        9.7142200        9.4689500
       76.728900        9.7572800        9.5330400
       77.969900        9.8055200        9.5975600
       79.231000        9.8585200        9.6556700
       80.512500        9.9064500        9.7102600
       81.814700        9.9497300        9.7651600
       83.138000        9.9865500        9.8203800
       84.482700        10.004800        9.8842400
       85.849100        10.033800        9.9733300
       87.237700        10.073100        10.063200
       88.648700        10.114600        10.153900
       90.082500        10.149700        10.245400
       91.539500        10.182200        10.368400
       93.020100        10.248200        10.508000
       94.524600        10.356600        10.637300
       96.053500        10.456600        10.717000
       97.607100        10.543100        10.797300
       99.185800        10.622600        10.878200
       100.79000        10.698400        10.959800
       102.42000        10.770800        11.041900
       104.07700        10.839500        11.124700
       105.76000        10.902900        11.208000
       107.47100        10.957700        11.292000
       109.20900        10.993900        11.376700
       110.97500        10.965300        11.504200
       112.77000        11.017700        11.751100
       114.59400        11.181500        12.003300
       116.44800        11.409600        12.104500
       118.33100        11.575700        12.162400
       120.24500        11.697200        12.226900
       122.19000        11.811400        12.298200
       124.16600        11.919200        12.369900
       126.17500        12.015200        12.442000
       128.21500        12.100600        12.541900
       130.28900        12.214100        12.658000
       132.39700        12.383300        12.775100
       134.53800        12.558500        12.785700
       136.71400        12.668500        12.771300
       138.92500        12.721800        12.756800
       141.17200        12.627400        12.909900
       143.45600        12.854300        13.074300
       145.77600        13.043100        13.059300
       148.13400        13.228200        13.044200
       150.53000        13.364900        12.855000
       152.96400        13.407000        12.655600
       155.43900        13.496900        12.459300
       157.95300        13.446300        11.831500
       160.50700        12.893700        11.092900
       163.10300        11.968600        10.472900
       165.74200        10.391200        9.5670400
       168.42200        7.2585500        8.8325200
       171.14600       -2.3942600        12.507600
       173.91500       0.12535100        31.966900
       176.72700        11.104600        29.063800
       179.58600        16.743600        25.575700
       182.49100        18.199300        22.630100
       185.44200        18.680000        20.577400
       188.44200        18.274900        19.315500
       191.48900        18.014100        18.817000
       194.58700        18.055600        18.573900
       197.73400        18.141900        18.333700
       200.93200        18.144900        18.096400
       204.18200        18.154900        18.068700
       207.48500        18.195900        18.090200
       210.84000        18.308800        18.167000
       214.25100        18.472200        18.244500
       217.71600        18.657500        18.323600
       221.23700        18.860600        18.404600
       224.81600        19.078000        18.486500
       228.45200        19.308200        18.568700
       232.14700        19.553200        18.651000
       235.90200        19.809900        18.724600
       239.71700        20.079900        18.787400
       243.59500        20.343800        18.836600
       247.53500        20.606500        18.886000
       251.53800        20.872600        18.935600
       255.60700        21.147500        18.985500
       259.74100        21.435700        19.026600
       263.94200        21.740200        19.042600
       268.21100        22.019900        19.030300
       272.54900        22.284400        19.018500
       276.95700        22.541300        19.006600
       281.43700        22.795000        18.994700
       285.98900        23.043200        18.973500
       290.61500        23.284100        18.949200
       295.31500        23.514500        18.921600
       300.09200        23.735700        18.893200
       304.94500        23.947600        18.865000
       309.87800        24.151200        18.837500
       314.89000        24.345400        18.809900
       319.98300        24.528300        18.782200
       325.15800        24.696500        18.754500
       330.41800        24.842200        18.726300
       335.76200        24.910400        18.739700
       341.19200        25.024900        18.838700
       346.71100        25.189400        18.939300
       352.31900        25.372300        19.040500
       358.01700        25.569800        19.141900
       363.80800        25.779800        19.243300
       369.69200        26.002100        19.344700
       375.67200        26.235200        19.445300
       381.74800        26.479500        19.544500
       387.92200        26.737800        19.640000
       394.19700        26.999800        19.727300
       400.57300        27.267700        19.815200
       407.05200        27.544200        19.903600
       413.63500        27.834000        19.993400
       420.32600        28.139300        20.077700
       427.12400        28.473600        20.153200
       434.03200        28.799700        20.189800
       441.05200        29.119400        20.226600
       448.18600        29.441300        20.263700
       455.43500        29.775700        20.301400
       462.80200        30.123400        20.317200
       470.28700        30.471600        20.318800
       477.89400        30.810700        20.308500
       485.62300        31.149200        20.298300
       493.47800        31.498400        20.286000
       501.45900        31.856700        20.265200
       509.57000        32.224800        20.227400
       517.81200        32.608400        20.174000
       526.18700        32.999500        20.093300
       534.69800        33.385300        19.961900
       543.34600        33.731900        19.806100
       552.13400        34.057900        19.651700
       561.06500        34.370600        19.486000
       570.13900        34.666300        19.315300
       579.36100        34.944200        19.141600
       588.73200        35.209000        18.968800
       598.25400        35.462800        18.797000
       607.93000        35.708100        18.626800
       617.76300        35.947700        18.458200
       627.75500        36.188200        18.289800
       637.90800        36.428100        18.108300
       648.22600        36.658500        17.906900
       658.71100        36.859400        17.693700
       669.36500        37.031000        17.482900
       680.19100        37.178600        17.303100
       691.19300        37.334500        17.146800
       702.37200        37.518800        16.994800
       713.73300        37.710900        16.811800
       725.27700        37.878200        16.608500
       737.00800        38.027300        16.407300
       748.92800        38.164500        16.208500
       761.04200        38.293400        16.011800
       773.35100        38.417200        15.814300
       785.85900        38.533600        15.608700
       798.57000        38.631900        15.397300
       811.48600        38.715100        15.188700
       824.61100        38.785700        14.982700
       837.94900        38.845200        14.779500
       851.50200        38.893800        14.577500
       865.27400        38.931000        14.377000
       879.26900        38.956000        14.178100
       893.49100        38.969000        13.981700
       907.94300        38.970700        13.787800
       922.62800        38.962100        13.596600
       937.55100        38.941000        13.403600
       952.71500        38.906100        13.212300
       968.12400        38.857100        13.022800
       983.78300        38.794500        12.835400
       999.69500        38.719300        12.648400
       1015.8600        38.634000        12.461900
       1032.2900        38.525800        12.258400
       1048.9900        38.390500        12.056000
       1065.9600        38.226500        11.854700
       1083.2000        38.034400        11.656600
       1100.7200        37.813000        11.461500
       1118.5200        37.560200        11.269400
       1136.6100        37.272300        11.080000
       1155.0000        36.945800        10.893700
       1173.6800        36.576100        10.710600
       1192.6600        36.156800        10.529900
       1211.9500        35.680000        10.352200
       1231.5500        35.136100        10.177300
       1251.4700        34.511700        10.004900
       1271.7200        33.789500        9.8353000
       1292.2900        32.945600        9.6683600
       1313.1900        31.946000        9.5040000
       1334.4300        30.740200        9.3423100
       1356.0100        29.249000        9.1832000
       1377.9400        27.336900        9.0262800
       1400.2300        24.744800        8.8719500
       1422.8800        20.875500        8.7202400
       1445.8900        13.723800        8.5709600
       1467.6000       -44.215300        8.4346000
       1467.8000       -44.193100        42.825700
       1469.2800       -13.882000        42.760900
       1493.0400        17.488500        41.739600
       1517.1900        25.420600        40.742700
       1541.7300        30.263500        39.769700
       1566.6700        33.757600        38.819900
       1592.0100        36.474600        37.892300
       1617.7600        38.675800        36.986400
       1643.9200        40.502000        36.101700
       1670.5100        42.036700        35.237600
       1697.5300        43.331100        34.394100
       1724.9900        44.416800        33.570700
       1752.8900        45.307600        32.766700
       1781.2400        45.998700        31.982100
       1810.0500        46.453300        31.216400
       1839.3200        46.545100        30.469100
       1869.0700        45.640400        29.739500
       1884.4000        37.861300        29.374900
       1884.6000        37.868300        34.490800
       1899.3000        46.407600        34.078500
       1930.0200        48.911000        33.242600
       1961.2400        50.312600        32.427400
       1992.9600        51.307200        31.632400
       2025.2000        52.023600        30.864600
       2057.9500        52.401200        30.108900
       2089.7000        49.235700        29.405100
       2089.9000        49.240300        31.521600
       2091.2400        51.069000        31.491200
       2125.0600        53.887800        30.738400
       2159.4300        54.907300        30.004100
       2194.3600        55.649600        29.287800
       2229.8500        56.264200        28.590000
       2265.9200        56.264300        27.908900
       2302.5700        56.623800        28.347300
       2306.7000        56.738000        28.396700
       2306.9000        56.754200        28.420700
       2339.8100        57.803100        27.870600
       2377.6600        58.509900        27.260400
       2416.1100        59.097900        26.661900
       2455.1900        59.615800        26.075000
       2494.9000        60.081400        25.498400
       2535.2600        60.505100        24.933900
       2576.2600        60.894100        24.380600
       2617.9300        61.252000        23.837800
       2660.2700        61.583000        23.306500
       2703.3000        61.888800        22.784600
       2747.0300        62.171600        22.274500
       2791.4600        62.434100        21.774800
       2836.6100        62.677900        21.285400
       2882.4900        62.904000        20.806000
       2929.1100        63.114000        20.336400
       2976.4800        63.308400        19.876300
       3024.6300        63.488000        19.426100
       3073.5500        63.654600        18.986000
       3123.2600        63.809500        18.554900
       3173.7800        63.952300        18.132000
       3225.1100        64.083200        17.718600
       3277.2700        64.204100        17.314300
       3330.2800        64.315300        16.918100
       3384.1500        64.417200        16.530600
       3438.8800        64.509600        16.150700
       3494.5000        64.593700        15.779900
       3551.0200        64.670600        15.416700
       3608.4600        64.739200        15.060500
       3666.8200        64.800800        14.713100
       3726.1300        64.855800        14.372300
       3786.4000        64.903700        14.039000
       3847.6400        64.945400        13.713000
       3909.8700        64.981200        13.394000
       3973.1100        65.011300        13.081900
       4037.3800        65.035800        12.776600
       4102.6800        65.055000        12.477900
       4169.0300        65.069100        12.185600
       4236.4600        65.078300        11.899900
       4304.9800        65.082800        11.620200
       4374.6200        65.082700        11.346900
