;  Atomic scattering factors for V.
;   
;  Concatenation of data from CXRO <http://www-cxro.lbl.gov>
;  and LLNL <http://www-phys.llnl.gov/V_Div/scattering/asf.html>
;  
;  E (eV) f1 f2
;---------------
       10.000000       -9999.0000        1.0645900
       10.161700       -9999.0000        1.1180500
       10.326100       -9999.0000        1.1741900
       10.493100       -9999.0000        1.2331500
       10.662800       -9999.0000        1.2950700
       10.835300       -9999.0000        1.3601000
       11.010600       -9999.0000        1.4283900
       11.188600       -9999.0000        1.5001200
       11.369600       -9999.0000        1.5725800
       11.553500       -9999.0000        1.6378000
       11.740400       -9999.0000        1.7057200
       11.930300       -9999.0000        1.7764600
       12.123200       -9999.0000        1.8501400
       12.319300       -9999.0000        1.9268700
       12.518600       -9999.0000        1.9957100
       12.721000       -9999.0000        2.0526500
       12.926800       -9999.0000        2.1112100
       13.135900       -9999.0000        2.1714500
       13.348300       -9999.0000        2.2334100
       13.564200       -9999.0000        2.2971300
       13.783600       -9999.0000        2.3616500
       14.006600       -9999.0000        2.4262700
       14.233100       -9999.0000        2.4926500
       14.463300       -9999.0000        2.5587600
       14.697300       -9999.0000        2.5917500
       14.935000       -9999.0000        2.6251700
       15.176500       -9999.0000        2.6590100
       15.422000       -9999.0000        2.7265600
       15.671400       -9999.0000        2.8079000
       15.924900       -9999.0000        2.8916800
       16.182500       -9999.0000        2.9779500
       16.444200       -9999.0000        3.0274800
       16.710200       -9999.0000        3.0731500
       16.980500       -9999.0000        3.1195000
       17.255100       -9999.0000        3.1665400
       17.534200       -9999.0000        3.2143000
       17.817800       -9999.0000        3.2627800
       18.106000       -9999.0000        3.2713800
       18.398900       -9999.0000        3.2576700
       18.696400       -9999.0000        3.2440200
       18.998800       -9999.0000        3.2304200
       19.306100       -9999.0000        3.2168800
       19.618400       -9999.0000        3.2034000
       19.935700       -9999.0000        3.1899800
       20.258200       -9999.0000        3.1615700
       20.585800       -9999.0000        3.0993500
       20.918800       -9999.0000        3.0383500
       21.257100       -9999.0000        2.9785600
       21.600900       -9999.0000        2.9199400
       21.950300       -9999.0000        2.8525200
       22.305300       -9999.0000        2.7751400
       22.666100       -9999.0000        2.7001100
       23.032700       -9999.0000        2.6322000
       23.405300       -9999.0000        2.5660000
       23.783800       -9999.0000        2.5014700
       24.168500       -9999.0000        2.4541000
       24.559400       -9999.0000        2.4114300
       24.956600       -9999.0000        2.3695000
       25.360300       -9999.0000        2.3263600
       25.770500       -9999.0000        2.2843600
       26.187300       -9999.0000        2.2431100
       26.610900       -9999.0000        2.2026100
       27.041300       -9999.0000        2.1628400
       27.478600       -9999.0000        2.1012700
       27.923100       -9999.0000        2.0323200
       28.374700       -9999.0000        1.9656300
       28.833700       -9999.0000        1.9011300
       29.300000        5.3459300        1.8559700
       29.773900        5.2570200        1.8327900
       30.255500        5.1717300        1.8099000
       30.744900        5.0704600        1.7883500
       31.242100        4.9637700        1.8009500
       31.747500        4.8669200        1.8136500
       32.260900        4.7600600        1.8264300
       32.782700        4.6439400        1.8544800
       33.313000        4.5327800        1.9024300
       33.851800        4.4266000        1.9516200
       34.399300        4.3174400        2.0020800
       34.955700        4.2010500        2.0538400
       35.521100        4.0558900        2.1086000
       36.095600        3.9024900        2.2093400
       36.679400        3.7654900        2.3148900
       37.272700        3.6204700        2.4254900
       37.875500        3.4354300        2.5413600
       38.488200        3.2279600        2.7202700
       39.110700        3.0396000        2.9482500
       39.743200        2.8462000        3.1953500
       40.386100        2.6210500        3.5311800
       41.039300        2.4516700        3.9874100
       41.703100        2.4172400        4.5025900
       42.377600        2.4618800        4.9938300
       43.063000        2.6190100        5.5376200
       43.759500        2.8830500        5.9805500
       44.467300        3.1639000        6.3708200
       45.186500        3.4890000        6.7287200
       45.917400        3.8253300        7.0199100
       46.660000        4.1815300        7.3237000
       47.414700        4.6360800        7.5950200
       48.181600        5.1531200        7.7633600
       48.960900        5.6176400        7.7437800
       49.752800        5.9879500        7.7242600
       50.557600        6.3232900        7.7047900
       51.375300        6.6421600        7.6853700
       52.206200        6.9538300        7.6558700
       53.050600        7.2571000        7.6196400
       53.908700        7.5620200        7.5835700
       54.780600        7.9057700        7.5476800
       55.666700        8.2657900        7.3853600
       56.567000        8.5468800        7.1859200
       57.482000        8.7704500        6.9918500
       58.411700        8.9662100        6.8030300
       59.356400        9.1553300        6.6193100
       60.316500        9.3200500        6.3991900
       61.292100        9.4323600        6.1862400
       62.283400        9.5117000        5.9803900
       63.290800        9.5578000        5.8047900
       64.314500        9.5966300        5.6576000
       65.354700        9.6338100        5.5230900
       66.411800        9.6693900        5.4067900
       67.485900        9.7103000        5.2929300
       68.577500        9.7474000        5.1814800
       69.686700        9.7800800        5.0723700
       70.813800        9.8075900        4.9655600
       71.959100        9.8293800        4.8610000
       73.123000        9.8456400        4.7586400
       74.305700        9.8538000        4.6536100
       75.507600        9.8488300        4.5500600
       76.728900        9.8159900        4.4488200
       77.969900        9.7618000        4.3779100
       79.231000        9.7216100        4.3542600
       80.512500        9.7032900        4.3307400
       81.814700        9.6925600        4.3073400
       83.138000        9.6853900        4.2840700
       84.482700        9.6791700        4.2609300
       85.849100        9.6720500        4.2379000
       87.237700        9.6501900        4.2150100
       88.648700        9.6245800        4.2194600
       90.082500        9.6189400        4.2345500
       91.539500        9.6220900        4.2496900
       93.020100        9.6311200        4.2648800
       94.524600        9.6446000        4.2801300
       96.053500        9.6616500        4.2954300
       97.607100        9.6816500        4.3107900
       99.185800        9.7041300        4.3262100
       100.79000        9.7286600        4.3416700
       102.42000        9.7548100        4.3572000
       104.07700        9.7822100        4.3727700
       105.76000        9.8068500        4.3884100
       107.47100        9.8319600        4.4122100
       109.20900        9.8649800        4.4399300
       110.97500        9.9032200        4.4678300
       112.77000        9.9459800        4.4959000
       114.59400        9.9933300        4.5241500
       116.44800        10.045900        4.5525800
       118.33100        10.104900        4.5811800
       120.24500        10.180500        4.6076600
       122.19000        10.258500        4.6058000
       124.16600        10.319700        4.6039400
       126.17500        10.379100        4.6020800
       128.21500        10.436700        4.6002300
       130.28900        10.493000        4.5983700
       132.39700        10.548700        4.5965200
       134.53800        10.604000        4.5946600
       136.71400        10.659600        4.5927500
       138.92500        10.715000        4.5896800
       141.17200        10.769700        4.5866200
       143.45600        10.824400        4.5835600
       145.77600        10.879300        4.5805000
       148.13400        10.934400        4.5774400
       150.53000        10.989900        4.5743800
       152.96400        11.046200        4.5713300
       155.43900        11.103400        4.5682800
       157.95300        11.161800        4.5652300
       160.50700        11.222200        4.5621800
       163.10300        11.285000        4.5591400
       165.74200        11.358600        4.5560900
       168.42200        11.433900        4.5322200
       171.14600        11.495400        4.5080000
       173.91500        11.554500        4.4839100
       176.72700        11.611500        4.4599600
       179.58600        11.667000        4.4361200
       182.49100        11.721600        4.4124200
       185.44200        11.775700        4.3888400
       188.44200        11.830200        4.3653900
       191.48900        11.886700        4.3420700
       194.58700        11.949600        4.3146000
       197.73400        12.009600        4.2724000
       200.93200        12.057800        4.2305900
       204.18200        12.102500        4.1892000
       207.48500        12.143900        4.1482100
       210.84000        12.182500        4.1076200
       214.25100        12.218500        4.0674400
       217.71600        12.252400        4.0276400
       221.23700        12.284300        3.9882300
       224.81600        12.314300        3.9492100
       228.45200        12.342800        3.9105700
       232.14700        12.370000        3.8723100
       235.90200        12.396700        3.8344200
       239.71700        12.424500        3.7969100
       243.59500        12.451100        3.7503900
       247.53500        12.470800        3.7042500
       251.53800        12.486600        3.6586600
       255.60700        12.499200        3.6136500
       259.74100        12.508800        3.5691800
       263.94200        12.515700        3.5252600
       268.21100        12.520000        3.4818800
       272.54900        12.521700        3.4390400
       276.95700        12.521100        3.3967200
       281.43700        12.518300        3.3549200
       285.98900        12.513800        3.3136500
       290.61500        12.509300        3.2728700
       295.31500        12.504100        3.2248300
       300.09200        12.490900        3.1739400
       304.94500        12.470600        3.1238500
       309.87800        12.445100        3.0745400
       314.89000        12.414600        3.0260200
       319.98300        12.379000        2.9782600
       325.15800        12.338300        2.9312600
       330.41800        12.292500        2.8850000
       335.76200        12.241200        2.8394700
       341.19200        12.184400        2.7946600
       346.71100        12.121800        2.7505600
       352.31900        12.053700        2.7071500
       358.01700        11.979700        2.6617700
       363.80800        11.896300        2.6149800
       369.69200        11.802600        2.5690000
       375.67200        11.698900        2.5238400
       381.74800        11.584400        2.4794700
       387.92200        11.458100        2.4358800
       394.19700        11.318900        2.3930600
       400.57300        11.165200        2.3509900
       407.05200        10.995500        2.3096600
       413.63500        10.808800        2.2690600
       420.32600        10.600400        2.2216300
       427.12400        10.360800        2.1746400
       434.03200        10.087600        2.1286400
       441.05200        9.7745200        2.0836200
       448.18600        9.4117500        2.0395500
       455.43500        8.9864000        1.9977000
       462.80200        8.4833600        1.9643600
       470.28700        7.8784200        1.9315800
       477.89400        7.1230900        1.8993400
       485.62300        6.1336100        1.8679400
       493.47800        4.7351600        1.8403900
       501.45900        2.4384700        1.8132600
       509.57000       -3.7236100        1.7865300
       512.00000       -18.091400        1.7786700
       512.20000       -18.074900        15.871700
       517.81200       0.32106900        15.662800
       526.18700        4.5901500        15.360000
       534.69800        6.8592100        15.063300
       543.34600        8.4119400        14.772200
       552.13400        9.5829500        14.486600
       561.06500        10.490800        14.191500
       570.13900        11.128800        13.924700
       579.36100        11.636900        13.865800
       588.73200        12.177300        13.861000
       598.25400        12.720100        13.890900
       607.93000        13.281400        13.921000
       617.76300        13.857100        13.951100
       627.75500        14.488400        13.973600
       637.90800        15.166400        13.900900
       648.22600        15.829000        13.689300
       658.71100        16.380800        13.390900
       669.36500        16.812800        13.099100
       680.19100        17.188600        12.842200
       691.19300        17.547800        12.612200
       702.37200        17.896100        12.391400
       713.73300        18.236400        12.155100
       725.27700        18.547100        11.910100
       737.00800        18.830000        11.669700
       748.92800        19.094100        11.433900
       761.04200        19.341800        11.202700
       773.35100        19.576200        10.975400
       785.85900        19.798700        10.747200
       798.57000        20.004900        10.519400
       811.48600        20.195500        10.296500
       824.61100        20.374300        10.078600
       837.94900        20.543100        9.8654300
       851.50200        20.702700        9.6554000
       865.27400        20.853000        9.4485400
       879.26900        20.994200        9.2450100
       893.49100        21.126800        9.0457800
       907.94300        21.252400        8.8508600
       922.62800        21.373700        8.6601500
       937.55100        21.489400        8.4675200
       952.71500        21.595300        8.2776400
       968.12400        21.693700        8.0907100
       983.78300        21.785000        7.9079600
       999.69500        21.870500        7.7293500
       1015.8600        21.950800        7.5548100
       1032.2900        22.027200        7.3841400
       1048.9900        22.100400        7.2146000
       1065.9600        22.167500        7.0460400
       1083.2000        22.227900        6.8814100
       1100.7200        22.283600        6.7206300
       1118.5200        22.335100        6.5636100
       1136.6100        22.382700        6.4102800
       1155.0000        22.426800        6.2605100
       1173.6800        22.467600        6.1142200
       1192.6600        22.505400        5.9714000
       1211.9500        22.540700        5.8318800
       1231.5500        22.574000        5.6956000
       1251.4700        22.605500        5.5612500
       1271.7200        22.634400        5.4288100
       1292.2900        22.660200        5.2979900
       1313.1900        22.682500        5.1702500
       1334.4300        22.702400        5.0455700
       1356.0100        22.719900        4.9238800
       1377.9400        22.735500        4.8051700
       1400.2300        22.749300        4.6892900
       1422.8800        22.761500        4.5761400
       1445.8900        22.772600        4.4658800
       1469.2800        22.782900        4.3577200
       1493.0400        22.792800        4.2513200
       1517.1900        22.801300        4.1445200
       1541.7300        22.805800        4.0400400
       1566.6700        22.808400        3.9382400
       1592.0100        22.809500        3.8388700
       1617.7600        22.809000        3.7420200
       1643.9200        22.807200        3.6476900
       1670.5100        22.804400        3.5556500
       1697.5300        22.800600        3.4659500
       1724.9900        22.796100        3.3785600
       1752.8900        22.791200        3.2921500
       1781.2400        22.784700        3.2075500
       1810.0500        22.776900        3.1248200
       1839.3200        22.768000        3.0442000
       1869.0700        22.758100        2.9656300
       1899.3000        22.747400        2.8890600
       1930.0200        22.735900        2.8144800
       1961.2400        22.723700        2.7418500
       1992.9600        22.710800        2.6711800
       2025.2000        22.697600        2.6030400
       2057.9500        22.684700        2.5354600
       2091.2400        22.670800        2.4693500
       2125.0600        22.656200        2.4049100
       2159.4300        22.641000        2.3420600
       2194.3600        22.625300        2.2807800
       2229.8500        22.609100        2.2210000
       2265.9200        22.592400        2.1627300
       2302.5700        22.575400        2.1059200
       2339.8100        22.557900        2.0505300
       2377.6600        22.540000        1.9965100
       2416.1100        22.521700        1.9438600
       2455.1900        22.503100        1.8925600
       2494.9000        22.484100        1.8425400
       2535.2600        22.464700        1.7937800
       2576.2600        22.445000        1.7462700
       2617.9300        22.424900        1.6999800
       2660.2700        22.404500        1.6548500
       2703.3000        22.383800        1.6108600
       2747.0300        22.362700        1.5680200
       2791.4600        22.341300        1.5262700
       2836.6100        22.319500        1.4855900
       2882.4900        22.297400        1.4459500
       2929.1100        22.274900        1.4073100
       2976.4800        22.251900        1.3696800
       3024.6300        22.228600        1.3330300
       3073.5500        22.204800        1.2973000
       3123.2600        22.180500        1.2625000
       3173.7800        22.155800        1.2286200
       3225.1100        22.130600        1.1956100
       3277.2700        22.104800        1.1634600
       3330.2800        22.078300        1.1320900
       3384.1500        22.051200        1.1015800
       3438.8800        22.023500        1.0718600
       3494.5000        21.994900        1.0428900
       3551.0200        21.965500        1.0146700
       3608.4600        21.935200       0.98719600
       3666.8200        21.903800       0.96043900
       3726.1300        21.871400       0.93437300
       3786.4000        21.837700       0.90898000
       3847.6400        21.802600       0.88424400
       3909.8700        21.765900       0.86015100
       3973.1100        21.727500       0.83670100
       4037.3800        21.687200       0.81382400
       4102.6800        21.644700       0.79159100
       4169.0300        21.599700       0.76988400
       4236.4600        21.551700       0.74876200
       4304.9800        21.500500       0.72821500
       4374.6200        21.445500       0.70815800
       4445.3700        21.385900       0.68864500
       4517.2700        21.321000       0.66961500
       4590.3300        21.249700       0.65112000
       4664.5800        21.170600       0.63305600
       4740.0300        21.081900       0.61548800
       4816.6900        20.981100       0.59840200
