;  Atomic scattering factors for Xe.
;   
;  Concatenation of data from CXRO <http://www-cxro.lbl.gov>
;  and LLNL <http://www-phys.llnl.gov/V_Div/scattering/asf.html>
;  
;  E (eV) f1 f2
;---------------
       10.000000       -9999.0000    3.1201400e-15
       10.161700       -9999.0000    3.1706100e-15
       10.326100       -9999.0000    3.2218900e-15
       10.493100       -9999.0000    3.2740000e-15
       10.662800       -9999.0000    3.3269600e-15
       10.835300       -9999.0000    3.3807700e-15
       11.010600       -9999.0000    3.4354500e-15
       11.188600       -9999.0000    3.4910200e-15
       11.369600       -9999.0000    3.5474800e-15
       11.553500       -9999.0000    3.6048600e-15
       11.740400       -9999.0000    3.6631600e-15
       11.930300       -9999.0000    3.7224100e-15
       12.000000       -9999.0000    3.7441700e-15
       12.200000       -9999.0000    3.0773900e-05
       12.319300       -9999.0000        1.7855100
       12.518600       -9999.0000        1.8616300
       12.721000       -9999.0000        7.8999800
       12.926800       -9999.0000        9.2877700
       13.135900       -9999.0000        10.180600
       13.348300       -9999.0000        10.845000
       13.564200       -9999.0000        11.478300
       13.783600       -9999.0000        11.998700
       14.006600       -9999.0000        12.550300
       14.233100       -9999.0000        13.146400
       14.463300       -9999.0000        13.335600
       14.697300       -9999.0000        13.470500
       14.935000       -9999.0000        13.606800
       15.176500       -9999.0000        13.744500
       15.422000       -9999.0000        13.786700
       15.671400       -9999.0000        13.692600
       15.924900       -9999.0000        13.599100
       16.182500       -9999.0000        13.506300
       16.444200       -9999.0000        13.414100
       16.710200       -9999.0000        13.230200
       16.980500       -9999.0000        12.938400
       17.255100       -9999.0000        12.653000
       17.534200       -9999.0000        12.373800
       17.817800       -9999.0000        12.100900
       18.106000       -9999.0000        11.834000
       18.398900       -9999.0000        11.559700
       18.696400       -9999.0000        11.262000
       18.998800       -9999.0000        10.972000
       19.306100       -9999.0000        10.689500
       19.618400       -9999.0000        10.414200
       19.935700       -9999.0000        10.146000
       20.258200       -9999.0000        9.8847200
       20.585800       -9999.0000        9.6301700
       20.918800       -9999.0000        9.3821800
       21.257100       -9999.0000        9.1405700
       21.600900       -9999.0000        8.9051800
       21.950300       -9999.0000        8.6532600
       22.305300       -9999.0000        8.2407300
       22.666100       -9999.0000        7.8478800
       23.032700       -9999.0000        7.4737500
       23.405300       -9999.0000        7.1174500
       23.783800       -9999.0000        6.7781400
       24.168500       -9999.0000        6.4550000
       24.559400       -9999.0000        6.1472700
       24.956600       -9999.0000        5.8542100
       25.360300       -9999.0000        5.5751200
       25.770500       -9999.0000        5.3093400
       26.187300       -9999.0000        5.0562300
       26.610900       -9999.0000        4.8151800
       27.041300       -9999.0000        4.5856300
       27.478600       -9999.0000        4.3587900
       27.923100       -9999.0000        4.1424200
       28.374700       -9999.0000        3.9367900
       28.833700       -9999.0000        3.7413600
       29.300000        9.2478700        3.5556400
       29.773900        9.1540100        3.3791400
       30.255500        9.0566500        3.2113900
       30.744900        8.9565900        3.0519800
       31.242100        8.8549500        2.9004700
       31.747500        8.7525200        2.7564900
       32.260900        8.6686300        2.6111700
       32.782700        8.5657800        2.4443200
       33.313000        8.4392100        2.2881300
       33.851800        8.3028600        2.1419200
       34.399300        8.1584500        2.0050500
       34.955700        8.0068600        1.8769300
       35.521100        7.8485500        1.7569900
       36.095600        7.6835800        1.6447200
       36.679400        7.5042800        1.5396300
       37.272700        7.3212700        1.4580800
       37.875500        7.1433500        1.3849900
       38.488200        6.9644500        1.3155600
       39.110700        6.7722200        1.2496100
       39.743200        6.5770400        1.2082200
       40.386100        6.3926100        1.1765000
       41.039300        6.2116800        1.1456200
       41.703100        6.0298200        1.1155400
       42.377600        5.8421400        1.0870200
       43.063000        5.6538200        1.0673100
       43.759500        5.4642900        1.0479500
       44.467300        5.2708100        1.0289400
       45.186500        5.0714700        1.0102800
       45.917400        4.8593100       0.99196200
       46.660000        4.6408100       0.98535100
       47.414700        4.4190900       0.98002700
       48.181600        4.1895700       0.97473200
       48.960900        3.9422800       0.97057600
       49.752800        3.6873300       0.97968000
       50.557600        3.4262600       0.98887000
       51.375300        3.1517200       0.99814500
       52.206200        2.8594500        1.0115700
       53.050600        2.5523500        1.0299800
       53.908700        2.2278000        1.0487300
       54.780600        1.8789200        1.0678100
       55.666700        1.4995700        1.0906700
       56.567000        1.0879000        1.1178300
       57.482000       0.63560300        1.1456700
       58.411700       0.12888500        1.1742000
       59.356400      -0.46952700        1.2034300
       60.316500       -1.1707400        1.2718900
       61.292100       -2.0189800        1.3584700
       62.283400       -3.3295300        1.5484000
       63.290800       -4.7849200        2.6000300
       64.314500       -6.0732400        4.3659400
       65.354700       -4.9911100        7.3311400
       66.411800       -3.1417400        7.3120500
       67.485900       -2.7542100        6.3260700
       68.577500       -3.3389000        5.4730600
       69.686700       -4.9673300        5.2633200
       70.813800       -6.4292700        6.1301500
       71.959100       -7.4436400        7.1397500
       73.123000       -8.3690100        8.3156000
       74.305700       -9.2070900        9.6851400
       75.507600       -9.8876700        11.280200
       76.728900       -10.273400        12.991600
       77.969900       -10.561900        14.711600
       79.231000       -10.563800        16.659400
       80.512500       -10.385900        18.410800
       81.814700       -10.197900        20.249200
       83.138000       -9.8686200        22.271100
       84.482700       -8.8949400        24.376900
       85.849100       -7.8739400        25.999700
       87.237700       -6.9713400        27.730600
       88.648700       -5.9149200        29.576600
       90.082500       -4.3209700        31.545600
       91.539500       -2.5419600        32.987900
       93.020100      -0.81793300        34.395000
       94.524600        1.0918000        35.862100
       96.053500        3.6171200        37.088100
       97.607100        6.0427400        37.638300
       99.185800        8.2060900        38.196500
       100.79000        10.475600        38.763100
       102.42000        13.132600        39.104000
       104.07700        15.686400        38.944800
       105.76000        18.066500        38.786300
       107.47100        20.763300        38.628400
       109.20900        23.421700        37.677200
       110.97500        25.786500        36.632300
       112.77000        28.683300        35.616300
       114.59400        31.149000        33.211700
       116.44800        32.718300        30.947900
       118.33100        33.962300        28.838400
       120.24500        35.140800        26.872600
       122.19000        36.473900        24.740800
       124.16600        37.140900        21.971100
       126.17500        37.222900        19.511300
       128.21500        37.016300        17.326900
       130.28900        36.618000        15.387100
       132.39700        36.098100        13.664500
       134.53800        35.489700        12.134700
       136.71400        34.827000        10.776200
       138.92500        34.119000        9.5697400
       141.17200        33.398300        8.5168700
       143.45600        32.675500        7.5821100
       145.77600        31.959100        6.7499700
       148.13400        31.247700        6.0091600
       150.53000        30.548400        5.3496300
       152.96400        29.869300        4.7585300
       155.43900        29.182900        4.2037300
       157.95300        28.479500        3.7136100
       160.50700        27.750600        3.3099600
       163.10300        27.055400        3.0080300
       165.74200        26.396800        2.7336500
       168.42200        25.700700        2.5081400
       171.14600        25.069200        2.4229000
       173.91500        24.501000        2.3405600
       176.72700        23.917100        2.2908500
       179.58600        23.388300        2.3287700
       182.49100        22.927700        2.3673100
       185.44200        22.498300        2.4219200
       188.44200        22.099500        2.4819400
       191.48900        21.711400        2.5434500
       194.58700        21.329100        2.6410700
       197.73400        20.980600        2.7693000
       200.93200        20.669200        2.9037500
       204.18200        20.380500        3.0447300
       207.48500        20.111700        3.1936200
       210.84000        19.862500        3.3504600
       214.25100        19.631600        3.5150000
       217.71600        19.418400        3.6876200
       221.23700        19.226700        3.8687200
       224.81600        19.051700        4.0505300
       228.45200        18.889600        4.2401900
       232.14700        18.744200        4.4387400
       235.90200        18.617100        4.6465800
       239.71700        18.510600        4.8641600
       243.59500        18.446000        5.0919300
       247.53500        18.411200        5.2935400
       251.53800        18.373800        5.4738700
       255.60700        18.339500        5.6603400
       259.74100        18.317300        5.8531600
       263.94200        18.311400        6.0525500
       268.21100        18.351400        6.2587200
       272.54900        18.421600        6.4227200
       276.95700        18.475600        6.5481900
       281.43700        18.519300        6.6761100
       285.98900        18.565200        6.8065400
       290.61500        18.619500        6.9395100
       295.31500        18.689700        7.0750800
       300.09200        18.805700        7.2133100
       304.94500        18.923400        7.2606000
       309.87800        19.008000        7.2971600
       314.89000        19.071300        7.3339200
       319.98300        19.124800        7.3708500
       325.15800        19.171300        7.4079700
       330.41800        19.212400        7.4452900
       335.76200        19.249300        7.4827800
       341.19200        19.282900        7.5204700
       346.71100        19.313800        7.5583500
       352.31900        19.342600        7.5964100
       358.01700        19.370100        7.6346700
       363.80800        19.397400        7.6731300
       369.69200        19.426300        7.7117700
       375.67200        19.465500        7.7506100
       381.74800        19.503100        7.7607100
       387.92200        19.525300        7.7641800
       394.19700        19.534500        7.7676500
       400.57300        19.535600        7.7711200
       407.05200        19.529400        7.7746000
       413.63500        19.516400        7.7780700
       420.32600        19.497200        7.7815400
       427.12400        19.472200        7.7850300
       434.03200        19.442200        7.7885000
       441.05200        19.408200        7.7919800
       448.18600        19.378300        7.7954700
       455.43500        19.364500        7.7877600
       462.80200        19.325200        7.7196000
       470.28700        19.243800        7.6520600
       477.89400        19.134400        7.5851000
       485.62300        18.999200        7.5187300
       493.47800        18.838300        7.4529400
       501.45900        18.650600        7.3877200
       509.57000        18.434300        7.3230800
       517.81200        18.186700        7.2590100
       526.18700        17.904600        7.1954900
       534.69800        17.583900        7.1325200
       543.34600        17.214900        7.0701100
       552.13400        16.795900        7.0167100
       561.06500        16.325300        6.9677900
       570.13900        15.790800        6.9192100
       579.36100        15.177500        6.8709700
       588.73200        14.466800        6.8230700
       598.25400        13.636700        6.7755000
       607.93000        12.649300        6.7216300
       617.76300        11.439200        6.6566800
       627.75500        9.9154400        6.5923500
       637.90800        7.9245800        6.5286500
       648.22600        5.1540500        6.4655500
       658.71100       0.82338900        6.4030700
       669.36500       -8.2188300        6.3411900
       676.30000       -53.126500        6.3017600
       676.50000       -53.076500        40.044300
       680.19100       -13.591200        39.716200
       691.19300        1.8828700        38.764400
       702.37200        8.5097800        37.835500
       713.73300        12.834800        36.928700
       725.27700        16.044700        36.043700
       737.00800        18.580500        35.180000
       748.92800        20.655900        34.336900
       761.04200        22.390600        33.514000
       773.35100        23.846000        32.710800
       785.85900        25.073900        31.949300
       798.57000        26.140200        31.246800
       811.48600        27.072900        30.559800
       824.61100        27.873100        29.887800
       837.94900        28.543500        29.230600
       851.50200        29.079400        28.587900
       865.27400        29.462300        27.959300
       879.26900        29.640300        27.344500
       893.49100        29.369100        26.743300
       907.94300        28.845300        27.122000
       922.62800        28.823900        27.966300
       937.55100        29.344500        28.836900
       952.71500        30.213100        29.734600
       968.12400        31.875300        30.435800
       983.78300        33.530600        29.997500
       999.69500        34.507500        29.565600
       1015.8600        35.389100        29.139900
       1032.2900        36.174500        28.720300
       1048.9900        36.888600        28.308100
       1065.9600        37.550300        27.908500
       1083.2000        38.172500        27.514500
       1100.7200        38.760800        27.126100
       1118.5200        39.320400        26.743000
       1136.6100        39.855500        26.365500
       1155.0000        40.370400        25.993200
       1173.6800        40.868500        25.626000
       1192.6600        41.354200        25.264400
       1211.9500        41.833600        24.907700
       1231.5500        42.319900        24.556000
       1251.4700        42.824700        24.168900
       1271.7200        43.313200        23.741500
       1292.2900        43.748000        23.265300
       1313.1900        44.129800        22.798500
       1334.4300        44.478300        22.341200
       1356.0100        44.799900        21.893200
       1377.9400        45.098800        21.454000
       1400.2300        45.377400        21.023500
       1422.8800        45.637600        20.601700
       1445.8900        45.881300        20.188300
       1469.2800        46.109600        19.783400
       1493.0400        46.323700        19.386800
       1517.1900        46.525000        18.999200
       1541.7300        46.715000        18.619500
       1566.6700        46.894500        18.247600
       1592.0100        47.064100        17.882800
       1617.7600        47.224000        17.525400
       1643.9200        47.375500        17.175300
       1670.5100        47.519200        16.831800
       1697.5300        47.655500        16.495300
       1724.9900        47.789100        16.165600
       1752.8900        47.916600        15.834300
       1781.2400        48.032300        15.507000
       1810.0500        48.139100        15.184300
       1839.3200        48.236500        14.868000
       1869.0700        48.326200        14.558400
       1899.3000        48.409400        14.255700
       1930.0200        48.486600        13.958800
       1961.2400        48.557600        13.668100
       1992.9600        48.621800        13.383500
       2025.2000        48.686200        13.110900
       2057.9500        48.750100        12.833300
       2091.2400        48.803300        12.559900
       2125.0600        48.851200        12.291400
       2159.4300        48.893600        12.027800
       2194.3600        48.930800        11.768900
       2229.8500        48.963300        11.514900
       2265.9200        48.991300        11.265400
       2302.5700        49.014600        11.020100
       2339.8100        49.033300        10.779700
       2377.6600        49.048000        10.543300
       2416.1100        49.058100        10.311200
       2455.1900        49.064200        10.083700
       2494.9000        49.066300        9.8596200
       2535.2600        49.063900        9.6405800
       2576.2600        49.058000        9.4250300
       2617.9300        49.047700        9.2134700
       2660.2700        49.033500        9.0062000
       2703.3000        49.015500        8.8023100
       2747.0300        48.993500        8.6025400
       2791.4600        48.967500        8.4061700
       2836.6100        48.937300        8.2136500
       2882.4900        48.903200        8.0246900
       2929.1100        48.864800        7.8392200
       2976.4800        48.822100        7.6572900
       3024.6300        48.775100        7.4787900
       3073.5500        48.723600        7.3036300
       3123.2600        48.667400        7.1316500
       3173.7800        48.606200        6.9629500
       3225.1100        48.540000        6.7974800
       3277.2700        48.468300        6.6350400
       3330.2800        48.390900        6.4756700
       3384.1500        48.307300        6.3193000
       3438.8800        48.217200        6.1659000
       3494.5000        48.120000        6.0154400
       3551.0200        48.015100        5.8677400
       3608.4600        47.901700        5.7227600
       3666.8200        47.778900        5.5805600
       3726.1300        47.645900        5.4412000
       3786.4000        47.501300        5.3042400
       3847.6400        47.343400        5.1699600
       3909.8700        47.170500        5.0382000
       3973.1100        46.980200        4.9089000
       4037.3800        46.769500        4.7820300
       4102.6800        46.534500        4.6575600
       4169.0300        46.270000        4.5355000
       4236.4600        45.969300        4.4157500
       4304.9800        45.622200        4.2981600
       4374.6200        45.214000        4.1827100
       4445.3700        44.721700        4.0695300
       4517.2700        44.105700        3.9585400
       4590.3300        43.288400        3.8495200
       4664.5800        42.078300        3.7426000
       4740.0300        39.697900        3.6377100
