;  Atomic scattering factors for Yb.
;   
;  Concatenation of data from CXRO <http://www-cxro.lbl.gov>
;  and LLNL <http://www-phys.llnl.gov/V_Div/scattering/asf.html>
;  
;  E (eV) f1 f2
;---------------
       10.000000       -9999.0000       0.21734200
       10.161700       -9999.0000       0.21863600
       10.326100       -9999.0000       0.21993700
       10.493100       -9999.0000       0.22124600
       10.662800       -9999.0000       0.22256300
       10.835300       -9999.0000       0.22388700
       11.010600       -9999.0000       0.22522000
       11.188600       -9999.0000       0.22656000
       11.369600       -9999.0000       0.22886300
       11.553500       -9999.0000       0.23378500
       11.740400       -9999.0000       0.23881300
       11.930300       -9999.0000       0.24394900
       12.123200       -9999.0000       0.24919500
       12.319300       -9999.0000       0.25592400
       12.518600       -9999.0000       0.26422200
       12.721000       -9999.0000       0.27279000
       12.926800       -9999.0000       0.28163600
       13.135900       -9999.0000       0.29076800
       13.348300       -9999.0000       0.30019600
       13.564200       -9999.0000       0.30993000
       13.783600       -9999.0000       0.31998000
       14.006600       -9999.0000       0.33035600
       14.233100       -9999.0000       0.34040400
       14.463300       -9999.0000       0.35042800
       14.697300       -9999.0000       0.36074700
       14.935000       -9999.0000       0.37136900
       15.176500       -9999.0000       0.38230500
       15.422000       -9999.0000       0.39356300
       15.671400       -9999.0000       0.40509200
       15.924900       -9999.0000       0.41630400
       16.182500       -9999.0000       0.42782500
       16.444200       -9999.0000       0.43966600
       16.710200       -9999.0000       0.45183400
       16.980500       -9999.0000       0.46434000
       17.255100       -9999.0000       0.47719000
       17.534200       -9999.0000       0.49064100
       17.817800       -9999.0000       0.50460100
       18.106000       -9999.0000       0.51895800
       18.398900       -9999.0000       0.53372300
       18.696400       -9999.0000       0.54890900
       18.998800       -9999.0000       0.56452700
       19.306100       -9999.0000       0.58020600
       19.618400       -9999.0000       0.59206700
       19.935700       -9999.0000       0.60417000
       20.258200       -9999.0000       0.61652100
       20.585800       -9999.0000       0.62912400
       20.918800       -9999.0000       0.64198500
       21.257100       -9999.0000       0.65510900
       21.600900       -9999.0000       0.67188900
       21.950300       -9999.0000       0.69105500
       22.305300       -9999.0000       0.71076800
       22.666100       -9999.0000       0.73112200
       23.032700       -9999.0000       0.75381900
       23.405300       -9999.0000       0.77722000
       23.783800       -9999.0000       0.80134800
       24.168500       -9999.0000       0.85873300
       24.559400       -9999.0000       0.94269800
       24.956600       -9999.0000        1.0494100
       25.360300       -9999.0000        1.1942100
       25.770500       -9999.0000        1.3589900
       26.187300       -9999.0000        1.8735300
       26.610900       -9999.0000        2.2624500
       27.041300       -9999.0000        3.3228000
       27.478600       -9999.0000        4.8821600
       27.923100       -9999.0000        6.6042000
       28.374700       -9999.0000        8.2135700
       28.833700       -9999.0000        9.7977600
       29.300000       -7.2176500        10.930000
       29.773900       -6.3158100        11.476300
       30.255500       -5.6249600        12.045900
       30.744900       -4.9126200        12.637900
       31.242100       -4.1736600        13.129100
       31.747500       -3.4090800        13.632100
       32.260900       -2.5755400        14.010600
       32.782700       -1.6887200        14.337100
       33.313000      -0.75372900        14.448000
       33.851800      0.055314500        14.416000
       34.399300       0.80343700        14.326400
       34.955700        1.4079800        14.097900
       35.521100        1.8863800        13.980100
       36.095600        2.4003600        13.872400
       36.679400        2.8956100        13.740100
       37.272700        3.3694900        13.590800
       37.875500        3.8479600        13.436000
       38.488200        4.2950900        13.124400
       39.110700        4.6216100        12.820000
       39.743200        4.8390900        12.522600
       40.386100        4.9917800        12.327900
       41.039300        5.1916800        12.178400
       41.703100        5.4015300        12.030700
       42.377600        5.6213200        11.855600
       43.063000        5.8001600        11.636300
       43.759500        5.9035000        11.436400
       44.467300        5.9868800        11.296200
       45.186500        6.0804600        11.157600
       45.917400        6.1451200        11.020800
       46.660000        6.1805000        10.940700
       47.414700        6.2431200        10.885000
       48.181600        6.3177900        10.829500
       48.960900        6.3908300        10.774300
       49.752800        6.4503200        10.720800
       50.557600        6.5075500        10.702400
       51.375300        6.5857700        10.684000
       52.206200        6.6676600        10.665600
       53.050600        6.7570600        10.647300
       53.908700        6.8495900        10.617200
       54.780600        6.9287300        10.579000
       55.666700        6.9969200        10.540900
       56.567000        7.0389300        10.503000
       57.482000        7.0613800        10.500700
       58.411700        7.1113900        10.532300
       59.356400        7.1815200        10.563900
       60.316500        7.2775500        10.595600
       61.292100        7.3862800        10.586500
       62.283400        7.4632100        10.570900
       63.290800        7.5299000        10.555300
       64.314500        7.5834000        10.547300
       65.354700        7.6354400        10.551500
       66.411800        7.6906300        10.555800
       67.485900        7.7419200        10.557100
       68.577500        7.7803800        10.551500
       69.686700        7.7951400        10.545900
       70.813800        7.7434500        10.541000
       71.959100        7.6859600        10.723600
       73.123000        7.7620200        10.909400
       74.305700        7.9233200        11.098300
       75.507600        8.1913900        11.144600
       76.728900        8.3701500        11.089000
       77.969900        8.4832700        11.033600
       79.231000        8.5657100        10.978600
       80.512500        8.6204400        10.923800
       81.814700        8.6423300        10.869300
       83.138000        8.6284100        10.854100
       84.482700        8.6235800        10.847000
       85.849100        8.5925300        10.839900
       87.237700        8.5199600        10.832800
       88.648700        8.4251600        10.960600
       90.082500        8.3951900        11.095200
       91.539500        8.3892200        11.231500
       93.020100        8.3984200        11.369500
       94.524600        8.4187900        11.509200
       96.053500        8.4481300        11.650500
       97.607100        8.4849700        11.793600
       99.185800        8.5284200        11.938500
       100.79000        8.5776900        12.085200
       102.42000        8.6323400        12.233600
       104.07700        8.6919200        12.383900
       105.76000        8.7561700        12.536000
       107.47100        8.8248200        12.690000
       109.20900        8.8977200        12.845900
       110.97500        8.9746800        13.003700
       112.77000        9.0556200        13.163400
       114.59400        9.1402900        13.325100
       116.44800        9.2285500        13.488800
       118.33100        9.3205000        13.655700
       120.24500        9.4170500        13.824800
       122.19000        9.5178000        13.996000
       124.16600        9.6227500        14.169300
       126.17500        9.7318700        14.344800
       128.21500        9.8452700        14.522400
       130.28900        9.9629800        14.702200
       132.39700        10.085200        14.884200
       134.53800        10.211800        15.068500
       136.71400        10.343300        15.255100
       138.92500        10.479600        15.444000
       141.17200        10.621000        15.635300
       143.45600        10.767700        15.828900
       145.77600        10.920100        16.024800
       148.13400        11.078400        16.223300
       150.53000        11.243300        16.424200
       152.96400        11.415000        16.627500
       155.43900        11.594500        16.833400
       157.95300        11.782700        17.041900
       160.50700        11.981200        17.252900
       163.10300        12.193500        17.466500
       165.74200        12.427000        17.682800
       168.42200        12.688200        17.860200
       171.14600        12.924900        18.022700
       173.91500        13.155800        18.186700
       176.72700        13.385500        18.352200
       179.58600        13.616000        18.519200
       182.49100        13.848800        18.687700
       185.44200        14.084800        18.857700
       188.44200        14.324600        19.029300
       191.48900        14.569100        19.202500
       194.58700        14.819000        19.377200
       197.73400        15.074900        19.553500
       200.93200        15.337900        19.731400
       204.18200        15.608900        19.911000
       207.48500        15.889200        20.092100
       210.84000        16.180300        20.275000
       214.25100        16.484600        20.459500
       217.71600        16.805400        20.645600
       221.23700        17.147800        20.833500
       224.81600        17.543500        21.023000
       228.45200        18.021600        21.122900
       232.14700        18.407300        21.151900
       235.90200        18.758900        21.181000
       239.71700        19.093500        21.210100
       243.59500        19.415800        21.239300
       247.53500        19.728700        21.268500
       251.53800        20.034000        21.297800
       255.60700        20.332800        21.327000
       259.74100        20.625600        21.356400
       263.94200        20.911900        21.385700
       268.21100        21.189800        21.415100
       272.54900        21.459700        21.459800
       276.95700        21.738100        21.509700
       281.43700        22.019600        21.559700
       285.98900        22.303100        21.609900
       290.61500        22.588100        21.660100
       295.31500        22.874800        21.710500
       300.09200        23.163200        21.761000
       304.94500        23.453600        21.811600
       309.87800        23.746200        21.862300
       314.89000        24.041500        21.913100
       319.98300        24.339800        21.964100
       325.15800        24.641700        22.015100
       330.41800        24.948000        22.066300
       335.76200        25.259400        22.117600
       341.19200        25.577500        22.169100
       346.71100        25.904400        22.220600
       352.31900        26.247200        22.272300
       358.01700        26.620400        22.324100
       363.80800        26.999200        22.300600
       369.69200        27.345500        22.271700
       375.67200        27.678100        22.243000
       381.74800        28.002700        22.214200
       387.92200        28.322100        22.185500
       394.19700        28.637900        22.156800
       400.57300        28.951100        22.128100
       407.05200        29.262900        22.099500
       413.63500        29.574000        22.070900
       420.32600        29.885400        22.042400
       427.12400        30.198200        22.013900
       434.03200        30.513600        21.985400
       441.05200        30.833900        21.957000
       448.18600        31.163600        21.928600
       455.43500        31.517700        21.891900
       462.80200        31.861600        21.804700
       470.28700        32.184300        21.717800
       477.89400        32.495700        21.631300
       485.62300        32.800700        21.545100
       493.47800        33.101300        21.459200
       501.45900        33.398700        21.373700
       509.57000        33.694100        21.288600
       517.81200        33.988500        21.203700
       526.18700        34.283100        21.119300
       534.69800        34.579200        21.035100
       543.34600        34.878500        20.951300
       552.13400        35.183800        20.867800
       561.06500        35.500300        20.784700
       570.13900        35.846200        20.701900
       579.36100        36.217400        20.544400
       588.73200        36.540400        20.359400
       598.25400        36.834100        20.175000
       607.93000        37.114200        19.992100
       617.76300        37.385900        19.811100
       627.75500        37.657800        19.630300
       637.90800        37.926500        19.433800
       648.22600        38.190100        19.214200
       658.71100        38.416700        18.980800
       669.36500        38.611600        18.749900
       680.19100        38.771500        18.553600
       691.19300        38.950500        18.383600
       702.37200        39.150200        18.219700
       713.73300        39.365800        18.027800
       725.27700        39.555500        17.817700
       737.00800        39.730500        17.610100
       748.92800        39.896400        17.404700
       761.04200        40.056800        17.201000
       773.35100        40.213400        16.995400
       785.85900        40.368700        16.778400
       798.57000        40.502700        16.552900
       811.48600        40.621800        16.329900
       824.61100        40.729500        16.109900
       837.94900        40.828100        15.892600
       851.50200        40.917600        15.674500
       865.27400        40.998600        15.455400
       879.26900        41.065500        15.235800
       893.49100        41.120800        15.018900
       907.94300        41.166000        14.804900
       922.62800        41.203800        14.593900
       937.55100        41.230800        14.376800
       952.71500        41.244900        14.160500
       968.12400        41.244100        13.945500
       983.78300        41.230700        13.733200
       999.69500        41.206700        13.522400
       1015.8600        41.172700        13.312900
       1032.2900        41.121900        13.091700
       1048.9900        41.051400        12.871000
       1065.9600        40.957200        12.650800
       1083.2000        40.841200        12.434100
       1100.7200        40.703600        12.220800
       1118.5200        40.543000        12.010800
       1136.6100        40.358200        11.804200
       1155.0000        40.147600        11.601000
       1173.6800        39.908600        11.401100
       1192.6600        39.638200        11.203900
       1211.9500        39.332800        11.010100
       1231.5500        38.988000        10.819500
       1251.4700        38.598400        10.632100
       1271.7200        38.157000        10.448200
       1292.2900        37.655700        10.267800
       1313.1900        37.082700        10.090200
       1334.4300        36.422800        9.9155900
       1356.0100        35.654900        9.7439600
       1377.9400        34.749200        9.5748100
       1400.2300        33.661100        9.4083700
       1422.8800        32.319700        9.2445600
       1445.8900        30.602300        9.0834900
       1469.2800        28.264900        8.9235600
       1493.0400        24.675500        8.7639300
       1517.1900        16.814600        8.6071500
       1527.7000       -12.265600        8.5405700
       1527.9000       -12.263200        27.967300
       1541.7300        17.686300        27.514600
       1566.6700        20.706600        26.726700
       1592.0100        21.166500        32.773700
       1617.7600        28.005800        38.119900
       1643.9200        33.086300        37.292400
       1670.5100        36.294100        36.482500
       1697.5300        38.712400        35.689800
       1724.9900        40.646200        34.913800
       1752.8900        42.235000        34.155200
       1781.2400        43.553400        33.413100
       1810.0500        44.639700        32.686800
       1839.3200        45.506100        31.976600
       1869.0700        46.130900        31.281900
       1899.3000        46.414700        30.602200
       1930.0200        45.882200        29.937100
       1949.7000        37.987400        29.524200
       1949.9000        37.995900        34.586100
       1961.2400        45.996600        34.277700
       1992.9600        48.942700        33.438800
       2025.2000        50.508300        32.628900
       2057.9500        51.635700        31.831600
       2091.2400        52.482000        31.054500
       2125.0600        53.055100        30.296600
       2159.4300        53.052900        29.558000
       2172.9000        50.220600        29.276700
       2173.1000        50.225000        31.268500
       2194.3600        54.052700        30.822600
       2229.8500        55.290400        30.101700
       2265.9200        56.132400        29.398700
       2302.5700        56.787400        28.712700
       2339.8100        57.233700        28.044100
       2377.6600        57.289200        27.799500
       2398.0000        56.523200        27.670600
       2398.2000        56.537100        28.234700
       2416.1100        58.066000        27.949100
       2455.1900        58.958900        27.343000
       2494.9000        59.613800        26.748600
       2535.2600        60.173400        26.165400
       2576.2600        60.670700        25.592600
       2617.9300        61.121000        25.031100
       2660.2700        61.532200        24.480000
       2703.3000        61.911300        23.940100
       2747.0300        62.260500        23.409800
       2791.4600        62.583600        22.890600
       2836.6100        62.883000        22.381200
       2882.4900        63.161100        21.882300
       2929.1100        63.418800        21.393000
       2976.4800        63.658500        20.913900
       3024.6300        63.880600        20.444000
       3073.5500        64.087000        19.984300
       3123.2600        64.278200        19.533600
       3173.7800        64.455700        19.092800
       3225.1100        64.620900        18.660800
       3277.2700        64.773000        18.236600
       3330.2800        64.913500        17.822100
       3384.1500        65.042700        17.416000
       3438.8800        65.161700        17.019000
       3494.5000        65.271400        16.630300
       3551.0200        65.371900        16.249000
       3608.4600        65.462800        15.875800
       3666.8200        65.546100        15.511300
       3726.1300        65.621200        15.153200
       3786.4000        65.688100        14.803500
       3847.6400        65.748300        14.461800
       3909.8700        65.801800        14.126800
       3973.1100        65.848700        13.799000
       4037.3800        65.889200        13.478100
       4102.6800        65.923700        13.164400
       4169.0300        65.952500        12.857300
       4236.4600        65.975700        12.556800
       4304.9800        65.993700        12.262900
       4374.6200        66.006500        11.975400
