;  Atomic scattering factors for Zn.
;   
;  Concatenation of data from CXRO <http://www-cxro.lbl.gov>
;  and LLNL <http://www-phys.llnl.gov/V_Div/scattering/asf.html>
;  
;  E (eV) f1 f2
;---------------
       10.000000       -9999.0000        2.2167500
       10.161700       -9999.0000        2.1191500
       10.326100       -9999.0000        2.0258500
       10.493100       -9999.0000        1.9366500
       10.662800       -9999.0000        1.8513800
       10.835300       -9999.0000        1.7698600
       11.010600       -9999.0000        1.6919400
       11.188600       -9999.0000        1.6329300
       11.369600       -9999.0000        1.5778400
       11.553500       -9999.0000        1.5246000
       11.740400       -9999.0000        1.4731700
       11.930300       -9999.0000        1.4167800
       12.123200       -9999.0000        1.3588000
       12.319300       -9999.0000        1.3032000
       12.518600       -9999.0000        1.2989800
       12.721000       -9999.0000        1.3006100
       12.926800       -9999.0000        1.3025800
       13.135900       -9999.0000        1.3147700
       13.348300       -9999.0000        1.3270700
       13.564200       -9999.0000        1.3394900
       13.783600       -9999.0000        1.3517100
       14.006600       -9999.0000        1.3638700
       14.233100       -9999.0000        1.3761500
       14.463300       -9999.0000        1.3885300
       14.697300       -9999.0000        1.4010200
       14.935000       -9999.0000        1.4136300
       15.176500       -9999.0000        1.4263500
       15.422000       -9999.0000        1.4391800
       15.671400       -9999.0000        1.4521300
       15.924900       -9999.0000        1.4651900
       16.182500       -9999.0000        1.4966200
       16.444200       -9999.0000        1.5298900
       16.710200       -9999.0000        1.5639000
       16.980500       -9999.0000        1.5986700
       17.255100       -9999.0000        1.6342200
       17.534200       -9999.0000        1.6705500
       17.817800       -9999.0000        1.7076900
       18.106000       -9999.0000        1.7456500
       18.398900       -9999.0000        1.7844600
       18.696400       -9999.0000        1.8241400
       18.998800       -9999.0000        1.8646900
       19.306100       -9999.0000        1.9061500
       19.618400       -9999.0000        1.9485200
       19.935700       -9999.0000        1.9918500
       20.258200       -9999.0000        2.0425300
       20.585800       -9999.0000        2.0948100
       20.918800       -9999.0000        2.1484300
       21.257100       -9999.0000        2.2034300
       21.600900       -9999.0000        2.2598300
       21.950300       -9999.0000        2.3176800
       22.305300       -9999.0000        2.3770000
       22.666100       -9999.0000        2.4378400
       23.032700       -9999.0000        2.5002500
       23.405300       -9999.0000        2.5642500
       23.783800       -9999.0000        2.6298800
       24.168500       -9999.0000        2.6972000
       24.559400       -9999.0000        2.7662400
       24.956600       -9999.0000        2.8370500
       25.360300       -9999.0000        2.9096700
       25.770500       -9999.0000        2.9841500
       26.187300       -9999.0000        3.0605300
       26.610900       -9999.0000        3.1400200
       27.041300       -9999.0000        3.2216000
       27.478600       -9999.0000        3.3053100
       27.923100       -9999.0000        3.3911900
       28.374700       -9999.0000        3.4793000
       28.833700       -9999.0000        3.5697000
       29.300000      -0.77602100        3.6624500
       29.773900      -0.77322300        3.7576100
       30.255500      -0.76850100        3.8552500
       30.744900      -0.76163200        3.9554100
       31.242100      -0.75233200        4.0581800
       31.747500      -0.74023400        4.1636300
       32.260900      -0.72480300        4.2718100
       32.782700      -0.70514800        4.3828000
       33.313000      -0.67922700        4.4966800
       33.851800      -0.64145800        4.6045600
       34.399300      -0.61007800        4.7059800
       34.955700      -0.58011600        4.8096300
       35.521100      -0.54977600        4.9155600
       36.095600      -0.51827000        5.0238200
       36.679400      -0.48508800        5.1344800
       37.272700      -0.44980200        5.2475700
       37.875500      -0.41203600        5.3631400
       38.488200      -0.37139300        5.4812700
       39.110700      -0.32744500        5.6019900
       39.743200      -0.27969700        5.7253800
       40.386100      -0.22756700        5.8514800
       41.039300      -0.17031000        5.9803600
       41.703100      -0.10694300        6.1120800
       42.377600     -0.036029300        6.2467000
       43.063000      0.044544700        6.3842900
       43.759500       0.14296200        6.5249000
       44.467300       0.27937600        6.6485000
       45.186500       0.39569100        6.7280500
       45.917400       0.49457400        6.8085400
       46.660000       0.58730500        6.8900000
       47.414700       0.67651000        6.9724300
       48.181600       0.76362100        7.0558600
       48.960900       0.84951800        7.1402800
       49.752800       0.93485500        7.2257000
       50.557600        1.0201100        7.3121500
       51.375300        1.1057000        7.3996400
       52.206200        1.1919800        7.4881700
       53.050600        1.2793300        7.5777500
       53.908700        1.3681000        7.6684200
       54.780600        1.4587000        7.7601700
       55.666700        1.5516400        7.8530100
       56.567000        1.6475900        7.9469600
       57.482000        1.7475300        8.0420400
       58.411700        1.8550400        8.1382600
       59.356400        1.9804500        8.2229500
       60.316500        2.0924200        8.2928400
       61.292100        2.1973200        8.3633300
       62.283400        2.2999600        8.4344200
       63.290800        2.4011900        8.5061000
       64.314500        2.5016000        8.5784000
       65.354700        2.6015700        8.6513200
       66.411800        2.7014200        8.7248400
       67.485900        2.8013900        8.7990000
       68.577500        2.9017000        8.8738000
       69.686700        3.0025700        8.9492200
       70.813800        3.1042700        9.0252800
       71.959100        3.2071300        9.1020000
       73.123000        3.3120700        9.1793600
       74.305700        3.4220600        9.2572400
       75.507600        3.5313000        9.3249700
       76.728900        3.6364300        9.3932000
       77.969900        3.7395200        9.4619300
       79.231000        3.8410400        9.5311600
       80.512500        3.9409300        9.6009000
       81.814700        4.0387700        9.6711400
       83.138000        4.1327300        9.7419100
       84.482700        4.2154000        9.8136200
       85.849100        4.3014400        9.9117900
       87.237700        4.3986300        10.010900
       88.648700        4.5018700        10.111100
       90.082500        4.6097100        10.212200
       91.539500        4.7216800        10.314400
       93.020100        4.8375600        10.417600
       94.524600        4.9573500        10.521800
       96.053500        5.0811200        10.627000
       97.607100        5.2091100        10.733300
       99.185800        5.3415900        10.840700
       100.79000        5.4790500        10.949100
       102.42000        5.6222100        11.058700
       104.07700        5.7723200        11.169300
       105.76000        5.9321400        11.281000
       107.47100        6.1121500        11.386700
       109.20900        6.2863800        11.466700
       110.97500        6.4546700        11.547400
       112.77000        6.6213700        11.628600
       114.59400        6.7892000        11.710400
       116.44800        6.9595700        11.792700
       118.33100        7.1339500        11.875700
       120.24500        7.3143700        11.959200
       122.19000        7.5048400        12.043300
       124.16600        7.7189900        12.128000
       126.17500        7.9748700        12.158900
       128.21500        8.1714300        12.131800
       130.28900        8.3271800        12.104800
       132.39700        8.4480800        12.077900
       134.53800        8.5218000        12.051000
       136.71400        8.4656500        12.024200
       138.92500        8.3813300        12.280500
       141.17200        8.4736000        12.625600
       143.45600        8.6995800        12.980500
       145.77600        9.1796900        13.273000
       148.13400        9.5884600        13.287000
       150.53000        9.8974100        13.301000
       152.96400        10.178100        13.315000
       155.43900        10.443100        13.329000
       157.95300        10.698600        13.343000
       160.50700        10.948300        13.357100
       163.10300        11.194700        13.371200
       165.74200        11.439900        13.385300
       168.42200        11.685400        13.399300
       171.14600        11.933100        13.413500
       173.91500        12.184900        13.427600
       176.72700        12.444000        13.441700
       179.58600        12.717700        13.455900
       182.49100        13.028400        13.439000
       185.44200        13.310300        13.383200
       188.44200        13.569300        13.327500
       191.48900        13.821400        13.272100
       194.58700        14.069500        13.217000
       197.73400        14.316300        13.162100
       200.93200        14.564200        13.107400
       204.18200        14.816900        13.052900
       207.48500        15.080400        12.998600
       210.84000        15.376300        12.944600
       214.25100        15.695300        12.804500
       217.71600        15.960300        12.627400
       221.23700        16.181000        12.452700
       224.81600        16.378100        12.280400
       228.45200        16.542500        12.110500
       232.14700        16.699600        11.977800
       235.90200        16.861200        11.847100
       239.71700        17.020500        11.717700
       243.59500        17.176200        11.589800
       247.53500        17.328100        11.463300
       251.53800        17.476200        11.338200
       255.60700        17.620600        11.214400
       259.74100        17.761600        11.092000
       263.94200        17.899300        10.970900
       268.21100        18.034100        10.851100
       272.54900        18.166100        10.732700
       276.95700        18.295700        10.615500
       281.43700        18.423200        10.499600
       285.98900        18.549000        10.385000
       290.61500        18.673700        10.271700
       295.31500        18.798300        10.159500
       300.09200        18.925600        10.048600
       304.94500        19.057600        9.9271800
       309.87800        19.179500        9.7982500
       314.89000        19.292200        9.6709800
       319.98300        19.400200        9.5453700
       325.15800        19.504500        9.4214000
       330.41800        19.605500        9.2990300
       335.76200        19.703900        9.1782500
       341.19200        19.800100        9.0590400
       346.71100        19.894600        8.9413800
       352.31900        19.987900        8.8252500
       358.01700        20.080700        8.7106300
       363.80800        20.174100        8.5974900
       369.69200        20.269400        8.4858200
       375.67200        20.369600        8.3756100
       381.74800        20.496100        8.2507500
       387.92200        20.600400        8.0940400
       394.19700        20.681300        7.9403000
       400.57300        20.752700        7.7894800
       407.05200        20.816400        7.6415300
       413.63500        20.873900        7.4963900
       420.32600        20.926000        7.3540000
       427.12400        20.973700        7.2143300
       434.03200        21.017600        7.0772900
       441.05200        21.058600        6.9428700
       448.18600        21.097800        6.8110000
       455.43500        21.137500        6.6816300
       462.80200        21.188700        6.5438800
       470.28700        21.224100        6.3894500
       477.89400        21.242200        6.2386500
       485.62300        21.251900        6.0914200
       493.47800        21.254100        5.9476500
       501.45900        21.249500        5.8072900
       509.57000        21.238700        5.6702300
       517.81200        21.221800        5.5364200
       526.18700        21.198800        5.4057500
       534.69800        21.169500        5.2781700
       543.34600        21.132700        5.1536000
       552.13400        21.082800        5.0319700
       561.06500        21.032700        4.9323100
       570.13900        20.982300        4.8338300
       579.36100        20.932300        4.7411900
       588.73200        20.881700        4.6515300
       598.25400        20.830500        4.5643100
       607.93000        20.777600        4.4786600
       617.76300        20.722600        4.3946600
       627.75500        20.666200        4.3120000
       637.90800        20.607300        4.2278100
       648.22600        20.543300        4.1408400
       658.71100        20.469500        4.0527900
       669.36500        20.384400        3.9665800
       680.19100        20.288400        3.8918300
       691.19300        20.191000        3.8259300
       702.37200        20.096200        3.7635300
       713.73300        19.998400        3.6982500
       725.27700        19.892600        3.6314400
       737.00800        19.778500        3.5658200
       748.92800        19.655900        3.5014300
       761.04200        19.524800        3.4380600
       773.35100        19.385300        3.3740600
       785.85900        19.234100        3.3052600
       798.57000        19.062900        3.2329800
       811.48600        18.871200        3.1622700
       824.61100        18.657700        3.0930900
       837.94900        18.419600        3.0254100
       851.50200        18.152900        2.9593500
       865.27400        17.852500        2.8947900
       879.26900        17.511400        2.8317000
       893.49100        17.120000        2.7700600
       907.94300        16.664800        2.7097400
       922.62800        16.124400        2.6507100
       937.55100        15.473400        2.6004600
       952.71500        14.666400        2.5530600
       968.12400        13.618800        2.5081900
       983.78300        12.150400        2.4641000
       999.69500        9.7717400        2.4210200
       1015.8600        3.7691900        2.3789200
       1021.7000       -15.419900        2.3640700
       1021.9000       -15.411800        17.232700
       1032.2900        6.7834300        17.103700
       1048.9900        11.504700        16.901200
       1065.9600        13.982400        16.701200
       1083.2000        15.706700        16.502500
       1100.7200        17.046000        16.306400
       1118.5200        18.151800        16.112900
       1136.6100        19.100800        15.921600
       1155.0000        19.938400        15.732500
       1173.6800        20.693900        15.545700
       1192.6600        21.388900        15.361200
       1211.9500        22.041400        15.178800
       1231.5500        22.677300        14.998500
       1251.4700        23.301800        14.773400
       1271.7200        23.903200        14.500600
       1292.2900        24.421600        14.170900
       1313.1900        24.873300        13.848800
       1334.4300        25.279200        13.534000
       1356.0100        25.648200        13.226500
       1377.9400        25.986200        12.925900
       1400.2300        26.297100        12.632100
       1422.8800        26.584300        12.344900
       1445.8900        26.850700        12.064400
       1469.2800        27.098800        11.789600
       1493.0400        27.330400        11.520300
       1517.1900        27.545500        11.254400
       1541.7300        27.744900        10.994200
       1566.6700        27.930200        10.740000
       1592.0100        28.103100        10.491600
       1617.7600        28.264500        10.249000
       1643.9200        28.415700        10.012000
       1670.5100        28.557700        9.7804800
       1697.5300        28.691300        9.5543100
       1724.9900        28.821000        9.3333600
       1752.8900        28.942800        9.1102400
       1781.2400        29.053900        8.8900900
       1810.0500        29.155600        8.6736300
       1839.3200        29.248500        8.4623400
       1869.0700        29.334100        8.2561400
       1899.3000        29.413000        8.0549300
       1930.0200        29.485900        7.8586800
       1961.2400        29.553200        7.6673000
       1992.9600        29.614600        7.4806800
       2025.2000        29.675700        7.3017600
       2057.9500        29.733300        7.1206600
       2091.2400        29.784000        6.9430700
       2125.0600        29.829900        6.7694600
       2159.4300        29.871400        6.5997400
       2194.3600        29.909200        6.4338800
       2229.8500        29.942900        6.2713600
       2265.9200        29.973100        6.1127900
       2302.5700        30.000200        5.9578600
       2339.8100        30.024100        5.8060600
       2377.6600        30.044900        5.6580700
       2416.1100        30.063000        5.5133400
       2455.1900        30.078300        5.3720200
       2494.9000        30.091200        5.2340700
       2535.2600        30.101900        5.0993300
       2576.2600        30.110300        4.9677500
       2617.9300        30.116500        4.8392400
       2660.2700        30.120800        4.7140600
       2703.3000        30.123300        4.5916100
       2747.0300        30.124100        4.4721800
       2791.4600        30.123100        4.3556800
       2836.6100        30.120700        4.2420500
       2882.4900        30.116800        4.1311400
       2929.1100        30.111600        4.0229400
       2976.4800        30.105100        3.9174100
       3024.6300        30.097300        3.8145000
       3073.5500        30.088500        3.7141100
       3123.2600        30.078500        3.6162100
       3173.7800        30.067600        3.5207400
       3225.1100        30.055700        3.4276900
       3277.2700        30.042900        3.3369500
       3330.2800        30.029400        3.2484900
       3384.1500        30.015000        3.1622900
       3438.8800        29.999900        3.0782700
       3494.5000        29.984100        2.9963600
       3551.0200        29.967800        2.9165400
       3608.4600        29.950700        2.8387300
       3666.8200        29.933200        2.7629400
       3726.1300        29.915100        2.6890800
       3786.4000        29.896500        2.6170900
       3847.6400        29.877500        2.5469500
       3909.8700        29.858000        2.4786300
       3973.1100        29.838100        2.4120200
       4037.3800        29.817800        2.3472000
       4102.6800        29.797100        2.2840000
       4169.0300        29.776100        2.2224600
       4236.4600        29.754700        2.1625100
       4304.9800        29.733100        2.1041400
       4374.6200        29.711100        2.0472200
       4445.3700        29.688800        1.9918300
       4517.2700        29.666200        1.9378900
       4590.3300        29.643400        1.8853000
       4664.5800        29.620200        1.8341500
       4740.0300        29.596800        1.7842800
       4816.6900        29.573100        1.7357500
